Model,MDO3104
Firmware Version,1.30

Waveform Type,RF_FD
Point Format,Y
Horizontal Units,Hz
Horizontal Scale,2.8e+07
,
Sample Interval,373333
Record Length,751
Gating,0.133155792277% to 100.0%
Probe Attenuation,1
Vertical Units,dBm
Vertical Offset,0
Vertical Scale,10
Vertical Position,0
Center Frequency,1.4e+08
Span,2.8e+08
Reference Level,-15
Label,
FREQUENCY,FD NORM
0.000000000e+00,-63.7904
3.733333333e+05,-71.6792
7.466666667e+05,-86.3485
1.120000000e+06,-82.5184
1.493333333e+06,-76.7196
1.866666667e+06,-74.0741
2.240000000e+06,-67.4107
2.613333333e+06,-62.8425
2.986666667e+06,-64.3916
3.360000000e+06,-58.7789
3.733333333e+06,-63.2283
4.106666667e+06,-65.3793
4.480000000e+06,-64.3708
4.853333333e+06,-71.963
5.226666667e+06,-73.5967
5.600000000e+06,-74.8027
5.973333333e+06,-67.7559
6.346666667e+06,-68.6499
6.720000000e+06,-73.5275
7.093333333e+06,-69.9833
7.466666667e+06,-69.7543
7.840000000e+06,-65.6793
8.213333333e+06,-63.5939
8.586666667e+06,-70.3223
8.960000000e+06,-75.7218
9.333333333e+06,-67.2282
9.706666667e+06,-66.5457
1.008000000e+07,-75.2861
1.045333333e+07,-66.9819
1.082666667e+07,-67.7
1.120000000e+07,-70.5351
1.157333333e+07,-73.7257
1.194666667e+07,-72.1947
1.232000000e+07,-74.8465
1.269333333e+07,-75.9381
1.306666667e+07,-72.0409
1.344000000e+07,-65.1657
1.381333333e+07,-70.6616
1.418666667e+07,-69.4641
1.456000000e+07,-71.1856
1.493333333e+07,-66.7525
1.530666667e+07,-65.5414
1.568000000e+07,-66.3301
1.605333333e+07,-78.5297
1.642666667e+07,-63.4091
1.680000000e+07,-65.2448
1.717333333e+07,-70.5665
1.754666667e+07,-70.3025
1.792000000e+07,-70.4692
1.829333333e+07,-68.018
1.866666667e+07,-76.7195
1.904000000e+07,-67.6832
1.941333333e+07,-68.4623
1.978666667e+07,-70.3718
2.016000000e+07,-70.6465
2.053333333e+07,-68.6458
2.090666667e+07,-66.359
2.128000000e+07,-69.9
2.165333333e+07,-65.7972
2.202666667e+07,-68.7993
2.240000000e+07,-70.3421
2.277333333e+07,-70.7962
2.314666667e+07,-80.4397
2.352000000e+07,-72.9829
2.389333333e+07,-64.2668
2.426666667e+07,-62.44
2.464000000e+07,-59.9567
2.501333333e+07,-54.0618
2.538666667e+07,-59.5846
2.576000000e+07,-69.6969
2.613333333e+07,-66.2955
2.650666667e+07,-69.4009
2.688000000e+07,-65.3338
2.725333333e+07,-59.9766
2.762666667e+07,-63.2086
2.800000000e+07,-72.299
2.837333333e+07,-70.9229
2.874666667e+07,-74.0716
2.912000000e+07,-78.7645
2.949333333e+07,-72.9491
2.986666667e+07,-59.5216
3.024000000e+07,-60.2143
3.061333333e+07,-74.0722
3.098666667e+07,-75.2635
3.136000000e+07,-73.0666
3.173333333e+07,-72.769
3.210666667e+07,-73.9603
3.248000000e+07,-60.1918
3.285333333e+07,-59.5616
3.322666667e+07,-79.5316
3.360000000e+07,-69.5057
3.397333333e+07,-69.0048
3.434666667e+07,-78.2103
3.472000000e+07,-73.8894
3.509333333e+07,-61.3381
3.546666667e+07,-58.4411
3.584000000e+07,-58.1465
3.621333333e+07,-58.534
3.658666667e+07,-71.1972
3.696000000e+07,-69.306
3.733333333e+07,-70.8027
3.770666667e+07,-63.7254
3.808000000e+07,-58.6454
3.845333333e+07,-69.5289
3.882666667e+07,-72.9279
3.920000000e+07,-85.8917
3.957333333e+07,-80.3619
3.994666667e+07,-74.1008
4.032000000e+07,-63.1028
4.069333333e+07,-57.669
4.106666667e+07,-62.5462
4.144000000e+07,-64.7258
4.181333333e+07,-67.2023
4.218666667e+07,-68.8236
4.256000000e+07,-73.6644
4.293333333e+07,-69.6491
4.330666667e+07,-61.3198
4.368000000e+07,-61.6203
4.405333333e+07,-62.1065
4.442666667e+07,-68.2225
4.480000000e+07,-73.8928
4.517333333e+07,-69.2627
4.554666667e+07,-66.4545
4.592000000e+07,-60.2181
4.629333333e+07,-59.7682
4.666666667e+07,-58.7479
4.704000000e+07,-66.115
4.741333333e+07,-69.7425
4.778666667e+07,-61.4025
4.816000000e+07,-63.3074
4.853333333e+07,-65.9631
4.890666667e+07,-64.2558
4.928000000e+07,-59.2458
4.965333333e+07,-66.2624
5.002666667e+07,-75.1024
5.040000000e+07,-84.1288
5.077333333e+07,-72.1366
5.114666667e+07,-64.5275
5.152000000e+07,-62.663
5.189333333e+07,-54.9668
5.226666667e+07,-59.4179
5.264000000e+07,-69.3278
5.301333333e+07,-76.3881
5.338666667e+07,-75.4587
5.376000000e+07,-72.187
5.413333333e+07,-65.4813
5.450666667e+07,-56.7975
5.488000000e+07,-58.3935
5.525333333e+07,-74.2888
5.562666667e+07,-70.2068
5.600000000e+07,-71.0725
5.637333333e+07,-69.4832
5.674666667e+07,-69.7424
5.712000000e+07,-53.3327
5.749333333e+07,-53.2364
5.786666667e+07,-74.9083
5.824000000e+07,-72.4814
5.861333333e+07,-72.2439
5.898666667e+07,-74.7368
5.936000000e+07,-71.5979
5.973333333e+07,-36.2437
6.010666667e+07,-33.9394
6.048000000e+07,-52.7022
6.085333333e+07,-74.3795
6.122666667e+07,-72.9614
6.160000000e+07,-73.8679
6.197333333e+07,-72.4219
6.234666667e+07,-58.375
6.272000000e+07,-52.5981
6.309333333e+07,-63.3017
6.346666667e+07,-72.9165
6.384000000e+07,-75.1349
6.421333333e+07,-68.6789
6.458666667e+07,-70.3823
6.496000000e+07,-61.276
6.533333333e+07,-54.1979
6.570666667e+07,-61.7662
6.608000000e+07,-65.682
6.645333333e+07,-72.2458
6.682666667e+07,-70.4314
6.720000000e+07,-76.4768
6.757333333e+07,-61.5945
6.794666667e+07,-56.0194
6.832000000e+07,-58.9627
6.869333333e+07,-62.7883
6.906666667e+07,-66.023
6.944000000e+07,-67.1647
6.981333333e+07,-68.2132
7.018666667e+07,-69.3576
7.056000000e+07,-56.0476
7.093333333e+07,-55.9877
7.130666667e+07,-60.5126
7.168000000e+07,-63.5695
7.205333333e+07,-63.1782
7.242666667e+07,-71.4475
7.280000000e+07,-67.4121
7.317333333e+07,-61.4387
7.354666667e+07,-59.7724
7.392000000e+07,-59.8896
7.429333333e+07,-62.5532
7.466666667e+07,-65.7592
7.504000000e+07,-63.0392
7.541333333e+07,-67.4146
7.578666667e+07,-64.6342
7.616000000e+07,-58.9388
7.653333333e+07,-55.9514
7.690666667e+07,-58.5463
7.728000000e+07,-62.9193
7.765333333e+07,-64.9826
7.802666667e+07,-70.0856
7.840000000e+07,-67.5206
7.877333333e+07,-60.4718
7.914666667e+07,-55.1964
7.952000000e+07,-56.7719
7.989333333e+07,-66.9929
8.026666667e+07,-66.0022
8.064000000e+07,-68.1009
8.101333333e+07,-69.4538
8.138666667e+07,-62.5182
8.176000000e+07,-56.283
8.213333333e+07,-56.3434
8.250666667e+07,-64.7447
8.288000000e+07,-75.6316
8.325333333e+07,-68.5166
8.362666667e+07,-59.4891
8.400000000e+07,-52.3282
8.437333333e+07,-55.4605
8.474666667e+07,-53.2816
8.512000000e+07,-64.263
8.549333333e+07,-74.5212
8.586666667e+07,-72.5482
8.624000000e+07,-66.5004
8.661333333e+07,-65.2141
8.698666667e+07,-60.4175
8.736000000e+07,-54.0043
8.773333333e+07,-62.6968
8.810666667e+07,-75.9298
8.848000000e+07,-69.4338
8.885333333e+07,-71.7802
8.922666667e+07,-72.8084
8.960000000e+07,-66.0312
8.997333333e+07,-59.0284
9.034666667e+07,-63.9957
9.072000000e+07,-79.473
9.109333333e+07,-77.8996
9.146666667e+07,-72.7022
9.184000000e+07,-68.8513
9.221333333e+07,-64.0013
9.258666667e+07,-53.1068
9.296000000e+07,-55.3497
9.333333333e+07,-77.6836
9.370666667e+07,-68.2664
9.408000000e+07,-68.7727
9.445333333e+07,-72.4224
9.482666667e+07,-66.0529
9.520000000e+07,-53.1198
9.557333333e+07,-53.5896
9.594666667e+07,-50.4969
9.632000000e+07,-60.8701
9.669333333e+07,-69.3196
9.706666667e+07,-72.3386
9.744000000e+07,-67.0301
9.781333333e+07,-56.206
9.818666667e+07,-54.2925
9.856000000e+07,-60.827
9.893333333e+07,-65.739
9.930666667e+07,-65.8697
9.968000000e+07,-65.5564
1.000533333e+08,-66.4567
1.004266667e+08,-58.3676
1.008000000e+08,-53.6734
1.011733333e+08,-57.1041
1.015466667e+08,-59.6429
1.019200000e+08,-66.9249
1.022933333e+08,-72.4774
1.026666667e+08,-66.1767
1.030400000e+08,-59.779
1.034133333e+08,-54.8503
1.037866667e+08,-61.6902
1.041600000e+08,-63.5808
1.045333333e+08,-68.0967
1.049066667e+08,-64.1877
1.052800000e+08,-64.3983
1.056533333e+08,-62.1844
1.060266667e+08,-55.8617
1.064000000e+08,-53.7647
1.067733333e+08,-54.7717
1.071466667e+08,-63.16
1.075200000e+08,-62.975
1.078933333e+08,-50.1847
1.082666667e+08,-52.1549
1.086400000e+08,-60.124
1.090133333e+08,-55.1666
1.093866667e+08,-53.63
1.097600000e+08,-60.2563
1.101333333e+08,-65.6704
1.105066667e+08,-63.294
1.108800000e+08,-66.8497
1.112533333e+08,-60.9059
1.116266667e+08,-55.2216
1.120000000e+08,-50.2321
1.123733333e+08,-58.9954
1.127466667e+08,-67.5523
1.131200000e+08,-65.5008
1.134933333e+08,-67.8434
1.138666667e+08,-66.3989
1.142400000e+08,-63.6996
1.146133333e+08,-52.6724
1.149866667e+08,-57.75
1.153600000e+08,-71.3128
1.157333333e+08,-73.0029
1.161066667e+08,-76.0499
1.164800000e+08,-78.1286
1.168533333e+08,-71.5211
1.172266667e+08,-49.5977
1.176000000e+08,-52.4272
1.179733333e+08,-78.6401
1.183466667e+08,-73.8897
1.187200000e+08,-70.4153
1.190933333e+08,-74.8447
1.194666667e+08,-63.4893
1.198400000e+08,-35.7238
1.202133333e+08,-36.5302
1.205866667e+08,-70.7243
1.209600000e+08,-75.6549
1.213333333e+08,-72.1736
1.217066667e+08,-71.6965
1.220800000e+08,-71.2036
1.224533333e+08,-50.5492
1.228266667e+08,-49.1415
1.232000000e+08,-66.9885
1.235733333e+08,-71.9516
1.239466667e+08,-66.6721
1.243200000e+08,-63.6664
1.246933333e+08,-63.173
1.250666667e+08,-54.511
1.254400000e+08,-50.6357
1.258133333e+08,-63.8995
1.261866667e+08,-64.1898
1.265600000e+08,-67.6668
1.269333333e+08,-69.0462
1.273066667e+08,-63.7581
1.276800000e+08,-57.2456
1.280533333e+08,-50.313
1.284266667e+08,-57.2909
1.288000000e+08,-58.5199
1.291733333e+08,-63.3101
1.295466667e+08,-68.3737
1.299200000e+08,-67.3207
1.302933333e+08,-60.7668
1.306666667e+08,-52.6289
1.310400000e+08,-56.3994
1.314133333e+08,-57.7587
1.317866667e+08,-49.6326
1.321600000e+08,-49.2798
1.325333333e+08,-63.5898
1.329066667e+08,-63.7097
1.332800000e+08,-52.2936
1.336533333e+08,-53.216
1.340266667e+08,-52.9053
1.344000000e+08,-61.1471
1.347733333e+08,-63.0927
1.351466667e+08,-62.2839
1.355200000e+08,-61.2402
1.358933333e+08,-55.1081
1.362666667e+08,-54.5388
1.366400000e+08,-54.6017
1.370133333e+08,-64.0564
1.373866667e+08,-67.2755
1.377600000e+08,-68.9555
1.381333333e+08,-60.7227
1.385066667e+08,-58.8434
1.388800000e+08,-55.2419
1.392533333e+08,-50.675
1.396266667e+08,-55.7534
1.400000000e+08,-63.2365
1.403733333e+08,-65.7582
1.407466667e+08,-64.9512
1.411200000e+08,-63.1841
1.414933333e+08,-60.3714
1.418666667e+08,-51.2413
1.422400000e+08,-54.2319
1.426133333e+08,-65.8331
1.429866667e+08,-67.6662
1.433600000e+08,-67.2538
1.437333333e+08,-61.3749
1.441066667e+08,-61.089
1.444800000e+08,-49.0486
1.448533333e+08,-50.8675
1.452266667e+08,-64.762
1.456000000e+08,-69.0988
1.459733333e+08,-66.9431
1.463466667e+08,-65.917
1.467200000e+08,-64.768
1.470933333e+08,-53.0501
1.474666667e+08,-52.547
1.478400000e+08,-78.0507
1.482133333e+08,-74.1535
1.485866667e+08,-73.8279
1.489600000e+08,-75.9182
1.493333333e+08,-69.0293
1.497066667e+08,-51.2839
1.500800000e+08,-48.0717
1.504533333e+08,-65.1445
1.508266667e+08,-71.126
1.512000000e+08,-73.2975
1.515733333e+08,-72.5269
1.519466667e+08,-72.3515
1.523200000e+08,-58.7598
1.526933333e+08,-50.6216
1.530666667e+08,-60.706
1.534400000e+08,-69.7008
1.538133333e+08,-71.7646
1.541866667e+08,-75.1812
1.545600000e+08,-69.4752
1.549333333e+08,-59.5288
1.553066667e+08,-48.2391
1.556800000e+08,-52.378
1.560533333e+08,-47.8868
1.564266667e+08,-58.5067
1.568000000e+08,-64.5478
1.571733333e+08,-64.5728
1.575466667e+08,-64.5007
1.579200000e+08,-52.5856
1.582933333e+08,-54.2352
1.586666667e+08,-58.9455
1.590400000e+08,-60.2932
1.594133333e+08,-62.9694
1.597866667e+08,-62.5794
1.601600000e+08,-60.1715
1.605333333e+08,-50.9202
1.609066667e+08,-50.0531
1.612800000e+08,-54.5846
1.616533333e+08,-61.3801
1.620266667e+08,-64.4849
1.624000000e+08,-67.9098
1.627733333e+08,-63.749
1.631466667e+08,-57.5522
1.635200000e+08,-54.2186
1.638933333e+08,-55.619
1.642666667e+08,-60.6908
1.646400000e+08,-63.8691
1.650133333e+08,-69.0773
1.653866667e+08,-65.9392
1.657600000e+08,-59.3657
1.661333333e+08,-53.0492
1.665066667e+08,-49.8208
1.668800000e+08,-53.2095
1.672533333e+08,-60.3653
1.676266667e+08,-64.3237
1.680000000e+08,-59.9344
1.683733333e+08,-60.631
1.687466667e+08,-57.7095
1.691200000e+08,-53.3093
1.694933333e+08,-54.6241
1.698666667e+08,-61.9911
1.702400000e+08,-61.4539
1.706133333e+08,-61.729
1.709866667e+08,-61.6965
1.713600000e+08,-56.279
1.717333333e+08,-48.9713
1.721066667e+08,-48.432
1.724800000e+08,-59.1878
1.728533333e+08,-65.1405
1.732266667e+08,-69.5162
1.736000000e+08,-63.1113
1.739733333e+08,-62.5013
1.743466667e+08,-53.7567
1.747200000e+08,-51.3478
1.750933333e+08,-62.3835
1.754666667e+08,-68.0705
1.758400000e+08,-70.7631
1.762133333e+08,-69.3625
1.765866667e+08,-63.8486
1.769600000e+08,-55.4912
1.773333333e+08,-47.4985
1.777066667e+08,-57.9173
1.780800000e+08,-71.4317
1.784533333e+08,-67.6101
1.788266667e+08,-65.4987
1.792000000e+08,-69.5363
1.795733333e+08,-53.7534
1.799466667e+08,-42.6962
1.803200000e+08,-47.5655
1.806933333e+08,-64.0636
1.810666667e+08,-66.325
1.814400000e+08,-70.1737
1.818133333e+08,-74.3984
1.821866667e+08,-69.6425
1.825600000e+08,-47.4624
1.829333333e+08,-49.1816
1.833066667e+08,-61.7442
1.836800000e+08,-68.0852
1.840533333e+08,-66.9249
1.844266667e+08,-63.4194
1.848000000e+08,-64.0238
1.851733333e+08,-52.4862
1.855466667e+08,-51.8957
1.859200000e+08,-65.4882
1.862933333e+08,-66.562
1.866666667e+08,-72.7977
1.870400000e+08,-66.8398
1.874133333e+08,-63.849
1.877866667e+08,-50.3116
1.881600000e+08,-47.9954
1.885333333e+08,-57.1616
1.889066667e+08,-61.1882
1.892800000e+08,-64.5682
1.896533333e+08,-64.9318
1.900266667e+08,-64.0709
1.904000000e+08,-59.8218
1.907733333e+08,-54.4437
1.911466667e+08,-57.6204
1.915200000e+08,-51.5213
1.918933333e+08,-51.6942
1.922666667e+08,-62.2335
1.926400000e+08,-61.5126
1.930133333e+08,-58.2156
1.933866667e+08,-49.7831
1.937600000e+08,-49.4214
1.941333333e+08,-50.4725
1.945066667e+08,-62.9001
1.948800000e+08,-62.0694
1.952533333e+08,-59.0187
1.956266667e+08,-59.4399
1.960000000e+08,-54.7228
1.963733333e+08,-56.6019
1.967466667e+08,-58.1695
1.971200000e+08,-67.6802
1.974933333e+08,-67.2324
1.978666667e+08,-68.1108
1.982400000e+08,-65.6277
1.986133333e+08,-53.7136
1.989866667e+08,-51.1704
1.993600000e+08,-48.3883
1.997333333e+08,-56.6314
2.001066667e+08,-64.585
2.004800000e+08,-67.5714
2.008533333e+08,-64.7242
2.012266667e+08,-60.6174
2.016000000e+08,-59.6193
2.019733333e+08,-52.5157
2.023466667e+08,-62.4918
2.027200000e+08,-61.6792
2.030933333e+08,-61.2074
2.034666667e+08,-61.3744
2.038400000e+08,-46.4893
2.042133333e+08,-46.5378
2.045866667e+08,-47.1771
2.049600000e+08,-53.6555
2.053333333e+08,-61.4868
2.057066667e+08,-63.5696
2.060800000e+08,-63.3904
2.064533333e+08,-62.0919
2.068266667e+08,-64.4867
2.072000000e+08,-53.4706
2.075733333e+08,-55.6191
2.079466667e+08,-71.7012
2.083200000e+08,-72.3861
2.086933333e+08,-65.4391
2.090666667e+08,-69.2516
2.094400000e+08,-61.7912
2.098133333e+08,-46.9305
2.101866667e+08,-46.7734
2.105600000e+08,-61.0964
2.109333333e+08,-66.1316
2.113066667e+08,-63.5489
2.116800000e+08,-66.5672
2.120533333e+08,-65.0083
2.124266667e+08,-54.6473
2.128000000e+08,-52.3982
2.131733333e+08,-70.5562
2.135466667e+08,-67.6048
2.139200000e+08,-72.6638
2.142933333e+08,-70.0994
2.146666667e+08,-68.5811
2.150400000e+08,-52.2793
2.154133333e+08,-46.9584
2.157866667e+08,-57.0252
2.161600000e+08,-67.4014
2.165333333e+08,-68.4524
2.169066667e+08,-65.0782
2.172800000e+08,-65.4475
2.176533333e+08,-60.7649
2.180266667e+08,-52.3672
2.184000000e+08,-60.327
2.187733333e+08,-64.7619
2.191466667e+08,-61.3531
2.195200000e+08,-64.0957
2.198933333e+08,-58.451
2.202666667e+08,-57.6295
2.206400000e+08,-47.9686
2.210133333e+08,-50.0285
2.213866667e+08,-53.6036
2.217600000e+08,-60.845
2.221333333e+08,-60.7773
2.225066667e+08,-62.0218
2.228800000e+08,-62.7181
2.232533333e+08,-56.3056
2.236266667e+08,-55.7369
2.240000000e+08,-56.8154
2.243733333e+08,-60.435
2.247466667e+08,-64.4165
2.251200000e+08,-65.6678
2.254933333e+08,-63.4164
2.258666667e+08,-53.5213
2.262400000e+08,-51.7048
2.266133333e+08,-48.3579
2.269866667e+08,-55.0085
2.273600000e+08,-61.6841
2.277333333e+08,-49.1801
2.281066667e+08,-47.1184
2.284800000e+08,-58.7956
2.288533333e+08,-57.9437
2.292266667e+08,-54.9607
2.296000000e+08,-58.875
2.299733333e+08,-63.8378
2.303466667e+08,-61.9071
2.307200000e+08,-60.905
2.310933333e+08,-58.7283
2.314666667e+08,-54.799
2.318400000e+08,-47.4423
2.322133333e+08,-49.6513
2.325866667e+08,-60.5262
2.329600000e+08,-65.2447
2.333333333e+08,-67.3341
2.337066667e+08,-63.6355
2.340800000e+08,-63.9086
2.344533333e+08,-51.9712
2.348266667e+08,-52.4394
2.352000000e+08,-65.9407
2.355733333e+08,-66.5181
2.359466667e+08,-74.6735
2.363200000e+08,-70.8191
2.366933333e+08,-69.0707
2.370666667e+08,-47.5992
2.374400000e+08,-45.8919
2.378133333e+08,-62.7862
2.381866667e+08,-67.3921
2.385600000e+08,-68.5791
2.389333333e+08,-70.4064
2.393066667e+08,-54.6866
2.396800000e+08,-50.0067
2.400533333e+08,-48.3432
2.404266667e+08,-61.4196
2.408000000e+08,-76.9386
2.411733333e+08,-71.9161
2.415466667e+08,-74.4149
2.419200000e+08,-67.667
2.422933333e+08,-55.1024
2.426666667e+08,-46.4252
2.430400000e+08,-53.9237
2.434133333e+08,-64.3921
2.437866667e+08,-65.7294
2.441600000e+08,-68.2715
2.445333333e+08,-67.7118
2.449066667e+08,-63.1197
2.452800000e+08,-53.1531
2.456533333e+08,-55.8759
2.460266667e+08,-67.8671
2.464000000e+08,-69.573
2.467733333e+08,-68.3843
2.471466667e+08,-64.4625
2.475200000e+08,-60.2293
2.478933333e+08,-47.9257
2.482666667e+08,-48.2718
2.486400000e+08,-55.4226
2.490133333e+08,-62.2328
2.493866667e+08,-65.4964
2.497600000e+08,-64.3783
2.501333333e+08,-62.9066
2.505066667e+08,-55.1369
2.508800000e+08,-53.8565
2.512533333e+08,-59.2981
2.516266667e+08,-56.8922
2.520000000e+08,-47.2519
2.523733333e+08,-54.1195
2.527466667e+08,-62.1218
2.531200000e+08,-52.9716
2.534933333e+08,-49.5576
2.538666667e+08,-51.6072
2.542400000e+08,-55.5192
2.546133333e+08,-61.2866
2.549866667e+08,-62.5428
2.553600000e+08,-62.7102
2.557333333e+08,-59.0504
2.561066667e+08,-55.6077
2.564800000e+08,-56.6885
2.568533333e+08,-59.0402
2.572266667e+08,-61.9189
2.576000000e+08,-64.2357
2.579733333e+08,-64.9473
2.583466667e+08,-59.3302
2.587200000e+08,-54.5532
2.590933333e+08,-48.7643
2.594666667e+08,-49.5908
2.598400000e+08,-59.8334
2.602133333e+08,-63.6263
2.605866667e+08,-66.9045
2.609600000e+08,-67.5493
2.613333333e+08,-60.964
2.617066667e+08,-55.2824
2.620800000e+08,-53.8062
2.624533333e+08,-65.1045
2.628266667e+08,-64.6791
2.632000000e+08,-67.21
2.635733333e+08,-56.8659
2.639466667e+08,-59.2409
2.643200000e+08,-51.4703
2.646933333e+08,-47.6824
2.650666667e+08,-59.0612
2.654400000e+08,-71.7744
2.658133333e+08,-71.7736
2.661866667e+08,-69.4501
2.665600000e+08,-67.6847
2.669333333e+08,-64.2743
2.673066667e+08,-53.8448
2.676800000e+08,-61.4149
2.680533333e+08,-77.7912
2.684266667e+08,-69.3178
2.688000000e+08,-67.3171
2.691733333e+08,-76.1653
2.695466667e+08,-59.9936
2.699200000e+08,-44.551
2.702933333e+08,-47.7586
2.706666667e+08,-72.7575
2.710400000e+08,-74.7915
2.714133333e+08,-75.3999
2.717866667e+08,-74.0485
2.721600000e+08,-70.3931
2.725333333e+08,-53.7888
2.729066667e+08,-54.8413
2.732800000e+08,-68.3852
2.736533333e+08,-73.0228
2.740266667e+08,-66.1069
2.744000000e+08,-67.788
2.747733333e+08,-66.0031
2.751466667e+08,-49.9839
2.755200000e+08,-48.501
2.758933333e+08,-45.5262
2.762666667e+08,-47.9399
2.766400000e+08,-65.5529
2.770133333e+08,-63.8753
2.773866667e+08,-64.4101
2.777600000e+08,-57.8924
2.781333333e+08,-54.8868
2.785066667e+08,-65.6277
2.788800000e+08,-70.5644
2.792533333e+08,-66.9688
2.796266667e+08,-66.2516
2.800000000e+08,-61.5343

