Model,MDO3104
Firmware Version,1.30

Waveform Type,RF_FD
Point Format,Y
Horizontal Units,Hz
Horizontal Scale,2.8e+07
,
Sample Interval,373333
Record Length,751
Gating,0.133155792277% to 100.0%
Probe Attenuation,1
Vertical Units,dBm
Vertical Offset,0
Vertical Scale,10
Vertical Position,0
Center Frequency,1.4e+08
Span,2.8e+08
Reference Level,-15
Label,
FREQUENCY,FD NORM
0.000000000e+00,-57.4777
3.733333333e+05,-66.46
7.466666667e+05,-78.4134
1.120000000e+06,-71.9175
1.493333333e+06,-69.4039
1.866666667e+06,-67.6594
2.240000000e+06,-72.4295
2.613333333e+06,-65.2377
2.986666667e+06,-67.9716
3.360000000e+06,-61.2746
3.733333333e+06,-61.4337
4.106666667e+06,-67.9771
4.480000000e+06,-66.1096
4.853333333e+06,-71.0396
5.226666667e+06,-69.5472
5.600000000e+06,-78.0878
5.973333333e+06,-60.5945
6.346666667e+06,-63.3997
6.720000000e+06,-73.442
7.093333333e+06,-72.6952
7.466666667e+06,-77.8061
7.840000000e+06,-67.2485
8.213333333e+06,-67.693
8.586666667e+06,-72.5743
8.960000000e+06,-71.4271
9.333333333e+06,-75.4481
9.706666667e+06,-69.8921
1.008000000e+07,-64.3788
1.045333333e+07,-69.8471
1.082666667e+07,-71.7657
1.120000000e+07,-71.0204
1.157333333e+07,-67.4976
1.194666667e+07,-57.3702
1.232000000e+07,-62.7619
1.269333333e+07,-74.1275
1.306666667e+07,-68.3431
1.344000000e+07,-65.4582
1.381333333e+07,-72.5383
1.418666667e+07,-72.6751
1.456000000e+07,-73.4262
1.493333333e+07,-67.7759
1.530666667e+07,-64.9036
1.568000000e+07,-70.514
1.605333333e+07,-61.0922
1.642666667e+07,-62.8451
1.680000000e+07,-62.5017
1.717333333e+07,-62.3079
1.754666667e+07,-63.8744
1.792000000e+07,-55.153
1.829333333e+07,-57.4075
1.866666667e+07,-66.2537
1.904000000e+07,-63.2886
1.941333333e+07,-63.2899
1.978666667e+07,-67.9726
2.016000000e+07,-71.2288
2.053333333e+07,-66.9218
2.090666667e+07,-71.5159
2.128000000e+07,-69.0846
2.165333333e+07,-68.5298
2.202666667e+07,-61.7574
2.240000000e+07,-64.459
2.277333333e+07,-73.3062
2.314666667e+07,-71.9984
2.352000000e+07,-65.8113
2.389333333e+07,-68.5986
2.426666667e+07,-68.2131
2.464000000e+07,-60.5395
2.501333333e+07,-54.4933
2.538666667e+07,-70.416
2.576000000e+07,-68.8743
2.613333333e+07,-63.8238
2.650666667e+07,-69.0293
2.688000000e+07,-65.0094
2.725333333e+07,-62.3331
2.762666667e+07,-70.6819
2.800000000e+07,-71.718
2.837333333e+07,-69.1144
2.874666667e+07,-69.1932
2.912000000e+07,-74.4062
2.949333333e+07,-73.021
2.986666667e+07,-54.5406
3.024000000e+07,-56.1978
3.061333333e+07,-69.0976
3.098666667e+07,-70.7677
3.136000000e+07,-71.4757
3.173333333e+07,-77.9118
3.210666667e+07,-70.9149
3.248000000e+07,-58.7869
3.285333333e+07,-58.0176
3.322666667e+07,-79.1477
3.360000000e+07,-74.7249
3.397333333e+07,-74.9442
3.434666667e+07,-74.9054
3.472000000e+07,-74.164
3.509333333e+07,-59.2569
3.546666667e+07,-57.6988
3.584000000e+07,-47.2484
3.621333333e+07,-48.0314
3.658666667e+07,-70.121
3.696000000e+07,-75.8382
3.733333333e+07,-70.6105
3.770666667e+07,-63.64
3.808000000e+07,-57.7709
3.845333333e+07,-68.0762
3.882666667e+07,-72.0841
3.920000000e+07,-77.6009
3.957333333e+07,-70.1679
3.994666667e+07,-67.6084
4.032000000e+07,-64.954
4.069333333e+07,-58.6398
4.106666667e+07,-63.0507
4.144000000e+07,-63.5315
4.181333333e+07,-53.0719
4.218666667e+07,-53.0972
4.256000000e+07,-67.3753
4.293333333e+07,-65.6442
4.330666667e+07,-59.9257
4.368000000e+07,-61.322
4.405333333e+07,-62.7927
4.442666667e+07,-68.4524
4.480000000e+07,-71.5123
4.517333333e+07,-68.8943
4.554666667e+07,-66.3664
4.592000000e+07,-60.9415
4.629333333e+07,-60.1528
4.666666667e+07,-58.5888
4.704000000e+07,-64.1957
4.741333333e+07,-67.954
4.778666667e+07,-38.0891
4.816000000e+07,-37.3164
4.853333333e+07,-65.5198
4.890666667e+07,-63.9302
4.928000000e+07,-59.7761
4.965333333e+07,-65.4976
5.002666667e+07,-72.2683
5.040000000e+07,-75.0137
5.077333333e+07,-66.9109
5.114666667e+07,-66.7919
5.152000000e+07,-65.1474
5.189333333e+07,-54.9952
5.226666667e+07,-59.2756
5.264000000e+07,-68.7799
5.301333333e+07,-72.3467
5.338666667e+07,-79.9541
5.376000000e+07,-49.477
5.413333333e+07,-48.0918
5.450666667e+07,-55.2681
5.488000000e+07,-57.2431
5.525333333e+07,-71.1507
5.562666667e+07,-71.8122
5.600000000e+07,-75.5779
5.637333333e+07,-75.2726
5.674666667e+07,-76.4209
5.712000000e+07,-53.2131
5.749333333e+07,-53.1045
5.786666667e+07,-72.1044
5.824000000e+07,-77.6028
5.861333333e+07,-75.0517
5.898666667e+07,-71.2494
5.936000000e+07,-71.8931
5.973333333e+07,-30.9819
6.010666667e+07,-28.6705
6.048000000e+07,-47.2941
6.085333333e+07,-73.5344
6.122666667e+07,-70.7465
6.160000000e+07,-69.9197
6.197333333e+07,-74.8757
6.234666667e+07,-60.5964
6.272000000e+07,-53.9145
6.309333333e+07,-67.7647
6.346666667e+07,-67.795
6.384000000e+07,-73.555
6.421333333e+07,-72.3273
6.458666667e+07,-73.6562
6.496000000e+07,-67.6395
6.533333333e+07,-55.487
6.570666667e+07,-49.1365
6.608000000e+07,-46.0087
6.645333333e+07,-59.9467
6.682666667e+07,-69.7725
6.720000000e+07,-67.7432
6.757333333e+07,-66.3062
6.794666667e+07,-54.8603
6.832000000e+07,-57.537
6.869333333e+07,-66.417
6.906666667e+07,-64.3386
6.944000000e+07,-64.3661
6.981333333e+07,-67.6339
7.018666667e+07,-63.1565
7.056000000e+07,-55.8871
7.093333333e+07,-55.8235
7.130666667e+07,-61.556
7.168000000e+07,-47.0145
7.205333333e+07,-42.1602
7.242666667e+07,-56.9642
7.280000000e+07,-64.6414
7.317333333e+07,-60.5032
7.354666667e+07,-58.6497
7.392000000e+07,-56.7863
7.429333333e+07,-60.4912
7.466666667e+07,-60.638
7.504000000e+07,-64.7735
7.541333333e+07,-65.8118
7.578666667e+07,-61.7667
7.616000000e+07,-58.9368
7.653333333e+07,-55.9972
7.690666667e+07,-58.656
7.728000000e+07,-64.7982
7.765333333e+07,-53.0147
7.802666667e+07,-47.934
7.840000000e+07,-57.9522
7.877333333e+07,-60.0515
7.914666667e+07,-54.6177
7.952000000e+07,-56.2819
7.989333333e+07,-68.1036
8.026666667e+07,-66.2626
8.064000000e+07,-64.4558
8.101333333e+07,-66.8616
8.138666667e+07,-65.0519
8.176000000e+07,-55.6799
8.213333333e+07,-56.769
8.250666667e+07,-71.5145
8.288000000e+07,-75.8182
8.325333333e+07,-76.7807
8.362666667e+07,-48.4999
8.400000000e+07,-40.0402
8.437333333e+07,-47.5185
8.474666667e+07,-52.5635
8.512000000e+07,-62.952
8.549333333e+07,-67.4145
8.586666667e+07,-64.6934
8.624000000e+07,-63.9209
8.661333333e+07,-68.9221
8.698666667e+07,-60.866
8.736000000e+07,-55.5087
8.773333333e+07,-66.8278
8.810666667e+07,-74.4791
8.848000000e+07,-71.244
8.885333333e+07,-68.1219
8.922666667e+07,-70.2901
8.960000000e+07,-59.1973
8.997333333e+07,-47.0471
9.034666667e+07,-53.7001
9.072000000e+07,-74.7366
9.109333333e+07,-73.7311
9.146666667e+07,-72.887
9.184000000e+07,-72.4748
9.221333333e+07,-67.9634
9.258666667e+07,-53.222
9.296000000e+07,-56.0576
9.333333333e+07,-66.7422
9.370666667e+07,-71.1153
9.408000000e+07,-72.076
9.445333333e+07,-72.6708
9.482666667e+07,-65.9031
9.520000000e+07,-51.7505
9.557333333e+07,-52.1846
9.594666667e+07,-43.8593
9.632000000e+07,-48.2862
9.669333333e+07,-66.0095
9.706666667e+07,-64.0642
9.744000000e+07,-64.2847
9.781333333e+07,-54.8499
9.818666667e+07,-53.7233
9.856000000e+07,-60.3923
9.893333333e+07,-65.0347
9.930666667e+07,-69.8944
9.968000000e+07,-68.0752
1.000533333e+08,-64.4089
1.004266667e+08,-58.8047
1.008000000e+08,-53.7783
1.011733333e+08,-56.2305
1.015466667e+08,-60.5653
1.019200000e+08,-56.8811
1.022933333e+08,-60.7442
1.026666667e+08,-65.6036
1.030400000e+08,-59.9688
1.034133333e+08,-55.1095
1.037866667e+08,-58.8953
1.041600000e+08,-61.4206
1.045333333e+08,-70.1289
1.049066667e+08,-65.31
1.052800000e+08,-64.6138
1.056533333e+08,-61.4482
1.060266667e+08,-56.3838
1.064000000e+08,-54.4518
1.067733333e+08,-54.7424
1.071466667e+08,-61.7691
1.075200000e+08,-60.0782
1.078933333e+08,-42.347
1.082666667e+08,-44.5217
1.086400000e+08,-59.628
1.090133333e+08,-55.3178
1.093866667e+08,-53.7092
1.097600000e+08,-62.669
1.101333333e+08,-68.6074
1.105066667e+08,-73.1847
1.108800000e+08,-65.8903
1.112533333e+08,-59.8448
1.116266667e+08,-55.4077
1.120000000e+08,-50.8835
1.123733333e+08,-62.8681
1.127466667e+08,-64.3801
1.131200000e+08,-65.42
1.134933333e+08,-66.1643
1.138666667e+08,-56.293
1.142400000e+08,-57.0093
1.146133333e+08,-52.321
1.149866667e+08,-59.2854
1.153600000e+08,-76.2225
1.157333333e+08,-66.1557
1.161066667e+08,-65.4979
1.164800000e+08,-66.4243
1.168533333e+08,-70.3507
1.172266667e+08,-49.714
1.176000000e+08,-52.3113
1.179733333e+08,-72.5499
1.183466667e+08,-68.4167
1.187200000e+08,-68.7945
1.190933333e+08,-72.2632
1.194666667e+08,-63.0346
1.198400000e+08,-35.4062
1.202133333e+08,-36.1518
1.205866667e+08,-64.901
1.209600000e+08,-71.7797
1.213333333e+08,-71.1825
1.217066667e+08,-77.0787
1.220800000e+08,-74.6459
1.224533333e+08,-50.8829
1.228266667e+08,-49.51
1.232000000e+08,-67.8201
1.235733333e+08,-67.8388
1.239466667e+08,-69.6325
1.243200000e+08,-68.645
1.246933333e+08,-67.5849
1.250666667e+08,-54.6013
1.254400000e+08,-51.4989
1.258133333e+08,-54.6144
1.261866667e+08,-54.9225
1.265600000e+08,-67.798
1.269333333e+08,-68.1104
1.273066667e+08,-64.1791
1.276800000e+08,-56.9059
1.280533333e+08,-50.1997
1.284266667e+08,-57.0676
1.288000000e+08,-58.896
1.291733333e+08,-62.1517
1.295466667e+08,-65.0341
1.299200000e+08,-66.8476
1.302933333e+08,-60.8421
1.306666667e+08,-52.3931
1.310400000e+08,-56.8132
1.314133333e+08,-58.4322
1.317866667e+08,-47.2284
1.321600000e+08,-46.6168
1.325333333e+08,-69.273
1.329066667e+08,-62.6303
1.332800000e+08,-52.9738
1.336533333e+08,-54.0472
1.340266667e+08,-53.3524
1.344000000e+08,-58.569
1.347733333e+08,-62.2866
1.351466667e+08,-62.5356
1.355200000e+08,-60.7135
1.358933333e+08,-56.585
1.362666667e+08,-55.1601
1.366400000e+08,-54.0434
1.370133333e+08,-61.4971
1.373866667e+08,-62.9539
1.377600000e+08,-62.4203
1.381333333e+08,-61.9847
1.385066667e+08,-55.7585
1.388800000e+08,-54.7033
1.392533333e+08,-51.1601
1.396266667e+08,-57.7815
1.400000000e+08,-65.5252
1.403733333e+08,-66.7188
1.407466667e+08,-65.0208
1.411200000e+08,-61.759
1.414933333e+08,-58.5445
1.418666667e+08,-52.2093
1.422400000e+08,-55.4591
1.426133333e+08,-62.4842
1.429866667e+08,-79.2953
1.433600000e+08,-70.1941
1.437333333e+08,-47.8215
1.441066667e+08,-45.3126
1.444800000e+08,-47.5998
1.448533333e+08,-48.4273
1.452266667e+08,-62.1513
1.456000000e+08,-68.0383
1.459733333e+08,-69.1133
1.463466667e+08,-72.0731
1.467200000e+08,-68.8084
1.470933333e+08,-51.6976
1.474666667e+08,-50.7216
1.478400000e+08,-69.5266
1.482133333e+08,-72.9496
1.485866667e+08,-71.1324
1.489600000e+08,-67.8287
1.493333333e+08,-74.4804
1.497066667e+08,-52.9462
1.500800000e+08,-49.5023
1.504533333e+08,-63.8511
1.508266667e+08,-67.1638
1.512000000e+08,-73.9283
1.515733333e+08,-69.1151
1.519466667e+08,-74.6202
1.523200000e+08,-56.2287
1.526933333e+08,-50.6519
1.530666667e+08,-60.9586
1.534400000e+08,-68.22
1.538133333e+08,-71.9913
1.541866667e+08,-70.2524
1.545600000e+08,-71.0433
1.549333333e+08,-57.7276
1.553066667e+08,-48.3502
1.556800000e+08,-53.7702
1.560533333e+08,-54.1328
1.564266667e+08,-66.0938
1.568000000e+08,-78.7634
1.571733333e+08,-64.2731
1.575466667e+08,-62.1985
1.579200000e+08,-52.0104
1.582933333e+08,-53.5642
1.586666667e+08,-62.0062
1.590400000e+08,-63.5777
1.594133333e+08,-68.1535
1.597866667e+08,-63.1089
1.601600000e+08,-62.6169
1.605333333e+08,-50.5673
1.609066667e+08,-49.5938
1.612800000e+08,-53.2251
1.616533333e+08,-58.9434
1.620266667e+08,-70.5612
1.624000000e+08,-61.1322
1.627733333e+08,-59.4598
1.631466667e+08,-56.1963
1.635200000e+08,-53.9139
1.638933333e+08,-57.3354
1.642666667e+08,-62.4651
1.646400000e+08,-64.257
1.650133333e+08,-67.6016
1.653866667e+08,-59.5487
1.657600000e+08,-57.3326
1.661333333e+08,-52.9064
1.665066667e+08,-50.9071
1.668800000e+08,-54.7059
1.672533333e+08,-60.484
1.676266667e+08,-53.2958
1.680000000e+08,-46.515
1.683733333e+08,-54.8302
1.687466667e+08,-57.5245
1.691200000e+08,-53.5275
1.694933333e+08,-54.5907
1.698666667e+08,-63.4529
1.702400000e+08,-63.3861
1.706133333e+08,-64.1065
1.709866667e+08,-64.7196
1.713600000e+08,-57.5992
1.717333333e+08,-48.4671
1.721066667e+08,-48.1211
1.724800000e+08,-58.6405
1.728533333e+08,-60.7534
1.732266667e+08,-68.8006
1.736000000e+08,-65.4932
1.739733333e+08,-58.4494
1.743466667e+08,-56.6864
1.747200000e+08,-52.1805
1.750933333e+08,-62.7496
1.754666667e+08,-68.2429
1.758400000e+08,-69.293
1.762133333e+08,-72.7745
1.765866667e+08,-64.7822
1.769600000e+08,-56.0559
1.773333333e+08,-47.2339
1.777066667e+08,-56.8093
1.780800000e+08,-73.9903
1.784533333e+08,-68.481
1.788266667e+08,-68.1268
1.792000000e+08,-73.0287
1.795733333e+08,-57.121
1.799466667e+08,-43.416
1.803200000e+08,-48.8885
1.806933333e+08,-72.4663
1.810666667e+08,-67.499
1.814400000e+08,-67.2145
1.818133333e+08,-63.0245
1.821866667e+08,-62.8743
1.825600000e+08,-46.7292
1.829333333e+08,-48.4121
1.833066667e+08,-63.7319
1.836800000e+08,-63.5131
1.840533333e+08,-72.2524
1.844266667e+08,-71.0488
1.848000000e+08,-76.6093
1.851733333e+08,-53.6098
1.855466667e+08,-53.2209
1.859200000e+08,-65.207
1.862933333e+08,-68.3256
1.866666667e+08,-66.4908
1.870400000e+08,-66.013
1.874133333e+08,-60.5978
1.877866667e+08,-49.6922
1.881600000e+08,-47.2755
1.885333333e+08,-57.8829
1.889066667e+08,-61.7165
1.892800000e+08,-61.6488
1.896533333e+08,-64.8725
1.900266667e+08,-61.9971
1.904000000e+08,-57.7943
1.907733333e+08,-53.8346
1.911466667e+08,-58.2141
1.915200000e+08,-62.5995
1.918933333e+08,-44.1378
1.922666667e+08,-45.2826
1.926400000e+08,-61.1715
1.930133333e+08,-55.4435
1.933866667e+08,-50.4535
1.937600000e+08,-49.3741
1.941333333e+08,-50.8962
1.945066667e+08,-60.5468
1.948800000e+08,-60.8945
1.952533333e+08,-67.5461
1.956266667e+08,-62.5849
1.960000000e+08,-55.8474
1.963733333e+08,-56.4143
1.967466667e+08,-55.7468
1.971200000e+08,-59.7261
1.974933333e+08,-64.2999
1.978666667e+08,-59.4094
1.982400000e+08,-60.1991
1.986133333e+08,-53.5187
1.989866667e+08,-52.1312
1.993600000e+08,-49.2324
1.997333333e+08,-59.0986
2.001066667e+08,-64.0863
2.004800000e+08,-64.1264
2.008533333e+08,-67.6369
2.012266667e+08,-60.2695
2.016000000e+08,-58.2283
2.019733333e+08,-54.6932
2.023466667e+08,-60.3505
2.027200000e+08,-64.8934
2.030933333e+08,-71.9292
2.034666667e+08,-63.0615
2.038400000e+08,-41.2634
2.042133333e+08,-41.7643
2.045866667e+08,-46.3266
2.049600000e+08,-50.427
2.053333333e+08,-64.1468
2.057066667e+08,-61.728
2.060800000e+08,-67.7162
2.064533333e+08,-62.9917
2.068266667e+08,-69.5469
2.072000000e+08,-51.6673
2.075733333e+08,-54.0456
2.079466667e+08,-69.529
2.083200000e+08,-69.0894
2.086933333e+08,-74.7309
2.090666667e+08,-75.2236
2.094400000e+08,-72.4491
2.098133333e+08,-48.8799
2.101866667e+08,-48.9202
2.105600000e+08,-72.2407
2.109333333e+08,-65.7041
2.113066667e+08,-65.9116
2.116800000e+08,-73.7511
2.120533333e+08,-66.6881
2.124266667e+08,-54.3744
2.128000000e+08,-52.8869
2.131733333e+08,-66.2308
2.135466667e+08,-62.2835
2.139200000e+08,-66.4567
2.142933333e+08,-61.3619
2.146666667e+08,-62.262
2.150400000e+08,-49.7744
2.154133333e+08,-46.0516
2.157866667e+08,-48.1344
2.161600000e+08,-46.352
2.165333333e+08,-66.4299
2.169066667e+08,-64.8959
2.172800000e+08,-66.6666
2.176533333e+08,-58.2308
2.180266667e+08,-52.5807
2.184000000e+08,-60.6407
2.187733333e+08,-63.0161
2.191466667e+08,-67.4287
2.195200000e+08,-66.3659
2.198933333e+08,-64.7005
2.202666667e+08,-59.2434
2.206400000e+08,-48.5375
2.210133333e+08,-50.9936
2.213866667e+08,-52.145
2.217600000e+08,-58.8238
2.221333333e+08,-58.9357
2.225066667e+08,-59.8314
2.228800000e+08,-59.7757
2.232533333e+08,-54.6622
2.236266667e+08,-54.0316
2.240000000e+08,-56.1477
2.243733333e+08,-60.4626
2.247466667e+08,-61.726
2.251200000e+08,-61.6113
2.254933333e+08,-58.3811
2.258666667e+08,-52.5677
2.262400000e+08,-51.2701
2.266133333e+08,-49.5781
2.269866667e+08,-54.805
2.273600000e+08,-61.0582
2.277333333e+08,-46.6174
2.281066667e+08,-44.5256
2.284800000e+08,-58.9236
2.288533333e+08,-58.1562
2.292266667e+08,-54.9173
2.296000000e+08,-58.5253
2.299733333e+08,-66.8498
2.303466667e+08,-68.2994
2.307200000e+08,-71.677
2.310933333e+08,-62.0205
2.314666667e+08,-55.9972
2.318400000e+08,-46.5278
2.322133333e+08,-49.2299
2.325866667e+08,-59.5961
2.329600000e+08,-64.0965
2.333333333e+08,-67.005
2.337066667e+08,-65.9094
2.340800000e+08,-63.4815
2.344533333e+08,-53.076
2.348266667e+08,-53.8564
2.352000000e+08,-66.3844
2.355733333e+08,-66.9768
2.359466667e+08,-65.8877
2.363200000e+08,-65.1193
2.366933333e+08,-66.0232
2.370666667e+08,-47.8299
2.374400000e+08,-46.1605
2.378133333e+08,-65.7974
2.381866667e+08,-66.9866
2.385600000e+08,-70.1595
2.389333333e+08,-67.7278
2.393066667e+08,-71.0462
2.396800000e+08,-59.5757
2.400533333e+08,-53.9029
2.404266667e+08,-55.026
2.408000000e+08,-71.5646
2.411733333e+08,-75.3515
2.415466667e+08,-73.7088
2.419200000e+08,-70.0005
2.422933333e+08,-54.8214
2.426666667e+08,-46.3196
2.430400000e+08,-54.1082
2.434133333e+08,-70.4009
2.437866667e+08,-71.515
2.441600000e+08,-74.5361
2.445333333e+08,-70.6691
2.449066667e+08,-65.1964
2.452800000e+08,-52.4422
2.456533333e+08,-55.2096
2.460266667e+08,-62.198
2.464000000e+08,-69.8148
2.467733333e+08,-66.8102
2.471466667e+08,-63.1452
2.475200000e+08,-61.4504
2.478933333e+08,-47.6794
2.482666667e+08,-48.1758
2.486400000e+08,-56.6239
2.490133333e+08,-59.2574
2.493866667e+08,-63.2754
2.497600000e+08,-62.0011
2.501333333e+08,-63.3745
2.505066667e+08,-55.5677
2.508800000e+08,-54.2056
2.512533333e+08,-58.3483
2.516266667e+08,-63.6128
2.520000000e+08,-55.6123
2.523733333e+08,-62.6508
2.527466667e+08,-60.0317
2.531200000e+08,-52.9218
2.534933333e+08,-50.0044
2.538666667e+08,-51.6341
2.542400000e+08,-56.3416
2.546133333e+08,-60.2254
2.549866667e+08,-61.7858
2.553600000e+08,-64.4557
2.557333333e+08,-62.0179
2.561066667e+08,-57.6007
2.564800000e+08,-56.3751
2.568533333e+08,-58.6112
2.572266667e+08,-63.031
2.576000000e+08,-67.764
2.579733333e+08,-68.5025
2.583466667e+08,-59.8673
2.587200000e+08,-53.3619
2.590933333e+08,-49.4114
2.594666667e+08,-50.2556
2.598400000e+08,-60.7291
2.602133333e+08,-65.3267
2.605866667e+08,-62.6987
2.609600000e+08,-64.0003
2.613333333e+08,-62.4708
2.617066667e+08,-56.7305
2.620800000e+08,-55.11
2.624533333e+08,-66.3001
2.628266667e+08,-63.4563
2.632000000e+08,-64.1748
2.635733333e+08,-61.8989
2.639466667e+08,-50.9409
2.643200000e+08,-52.4597
2.646933333e+08,-47.8388
2.650666667e+08,-58.0321
2.654400000e+08,-61.8366
2.658133333e+08,-63.2161
2.661866667e+08,-65.8297
2.665600000e+08,-71.9903
2.669333333e+08,-64.5101
2.673066667e+08,-53.4017
2.676800000e+08,-59.415
2.680533333e+08,-68.9475
2.684266667e+08,-69.3956
2.688000000e+08,-78.6182
2.691733333e+08,-72.9643
2.695466667e+08,-63.2817
2.699200000e+08,-46.0111
2.702933333e+08,-49.669
2.706666667e+08,-70.4951
2.710400000e+08,-69.1532
2.714133333e+08,-71.6569
2.717866667e+08,-77.8058
2.721600000e+08,-70.6783
2.725333333e+08,-53.1516
2.729066667e+08,-54.1548
2.732800000e+08,-75.7449
2.736533333e+08,-70.1727
2.740266667e+08,-71.372
2.744000000e+08,-64.743
2.747733333e+08,-61.9295
2.751466667e+08,-49.1245
2.755200000e+08,-47.8604
2.758933333e+08,-45.4394
2.762666667e+08,-47.2673
2.766400000e+08,-69.3148
2.770133333e+08,-66.2601
2.773866667e+08,-65.733
2.777600000e+08,-57.4255
2.781333333e+08,-54.6429
2.785066667e+08,-62.496
2.788800000e+08,-64.6221
2.792533333e+08,-65.8849
2.796266667e+08,-68.145
2.800000000e+08,-63.242

