Model,MDO3104
Firmware Version,1.30

Waveform Type,RF_FD
Point Format,Y
Horizontal Units,Hz
Horizontal Scale,2.8e+07
,
Sample Interval,373333
Record Length,751
Gating,0.133155792277% to 100.0%
Probe Attenuation,1
Vertical Units,dBm
Vertical Offset,0
Vertical Scale,10
Vertical Position,0
Center Frequency,1.4e+08
Span,2.8e+08
Reference Level,-15
Label,
FREQUENCY,FD NORM
0.000000000e+00,-60.0126
3.733333333e+05,-68.5936
7.466666667e+05,-87.3183
1.120000000e+06,-87.5266
1.493333333e+06,-71.5733
1.866666667e+06,-71.2074
2.240000000e+06,-72.9999
2.613333333e+06,-66.6626
2.986666667e+06,-72.2566
3.360000000e+06,-58.749
3.733333333e+06,-60.0179
4.106666667e+06,-62.7802
4.480000000e+06,-61.6791
4.853333333e+06,-73.1158
5.226666667e+06,-67.3351
5.600000000e+06,-74.6669
5.973333333e+06,-72.981
6.346666667e+06,-67.9251
6.720000000e+06,-71.7796
7.093333333e+06,-70.1465
7.466666667e+06,-69.6341
7.840000000e+06,-67.4196
8.213333333e+06,-72.9188
8.586666667e+06,-68.7077
8.960000000e+06,-70.9969
9.333333333e+06,-70.4595
9.706666667e+06,-69.0288
1.008000000e+07,-66.8595
1.045333333e+07,-73.7161
1.082666667e+07,-67.4899
1.120000000e+07,-69.4
1.157333333e+07,-70.0015
1.194666667e+07,-66.3455
1.232000000e+07,-67.9433
1.269333333e+07,-67.2563
1.306666667e+07,-65.4057
1.344000000e+07,-66.8003
1.381333333e+07,-66.5935
1.418666667e+07,-69.7056
1.456000000e+07,-70.4931
1.493333333e+07,-76.3629
1.530666667e+07,-66.3099
1.568000000e+07,-67.5377
1.605333333e+07,-63.4708
1.642666667e+07,-64.734
1.680000000e+07,-64.1782
1.717333333e+07,-63.974
1.754666667e+07,-63.9834
1.792000000e+07,-77.6589
1.829333333e+07,-70.0858
1.866666667e+07,-67.6378
1.904000000e+07,-61.9918
1.941333333e+07,-62.2665
1.978666667e+07,-72.12
2.016000000e+07,-70.5029
2.053333333e+07,-70.1821
2.090666667e+07,-74.8715
2.128000000e+07,-71.0133
2.165333333e+07,-68.7582
2.202666667e+07,-64.2937
2.240000000e+07,-71.6088
2.277333333e+07,-67.1085
2.314666667e+07,-66.3777
2.352000000e+07,-60.7273
2.389333333e+07,-64.7614
2.426666667e+07,-65.251
2.464000000e+07,-57.3635
2.501333333e+07,-52.3558
2.538666667e+07,-58.7653
2.576000000e+07,-66.2637
2.613333333e+07,-69.4406
2.650666667e+07,-71.7201
2.688000000e+07,-68.0872
2.725333333e+07,-58.131
2.762666667e+07,-61.5164
2.800000000e+07,-65.5129
2.837333333e+07,-67.4025
2.874666667e+07,-67.0162
2.912000000e+07,-69.0026
2.949333333e+07,-73.1483
2.986666667e+07,-58.5393
3.024000000e+07,-59.8106
3.061333333e+07,-71.8383
3.098666667e+07,-76.7642
3.136000000e+07,-72.7394
3.173333333e+07,-75.6423
3.210666667e+07,-70.12
3.248000000e+07,-61.3583
3.285333333e+07,-60.4276
3.322666667e+07,-78.4807
3.360000000e+07,-76.5557
3.397333333e+07,-74.2088
3.434666667e+07,-72.3996
3.472000000e+07,-67.2793
3.509333333e+07,-62.4407
3.546666667e+07,-59.8112
3.584000000e+07,-58.6299
3.621333333e+07,-59.8051
3.658666667e+07,-75.3501
3.696000000e+07,-77.5858
3.733333333e+07,-79.5741
3.770666667e+07,-64.0878
3.808000000e+07,-58.6019
3.845333333e+07,-68.2185
3.882666667e+07,-73.3906
3.920000000e+07,-74.595
3.957333333e+07,-69.6649
3.994666667e+07,-69.8389
4.032000000e+07,-64.0024
4.069333333e+07,-57.9748
4.106666667e+07,-64.3425
4.144000000e+07,-65.1936
4.181333333e+07,-68.2831
4.218666667e+07,-69.691
4.256000000e+07,-66.9271
4.293333333e+07,-65.6839
4.330666667e+07,-59.1553
4.368000000e+07,-61.6466
4.405333333e+07,-63.2384
4.442666667e+07,-77.9221
4.480000000e+07,-69.6589
4.517333333e+07,-69.0624
4.554666667e+07,-66.1283
4.592000000e+07,-60.4017
4.629333333e+07,-60.4386
4.666666667e+07,-58.7751
4.704000000e+07,-67.5789
4.741333333e+07,-67.113
4.778666667e+07,-63.0641
4.816000000e+07,-61.5931
4.853333333e+07,-64.5854
4.890666667e+07,-62.5053
4.928000000e+07,-61.159
4.965333333e+07,-66.792
5.002666667e+07,-69.8136
5.040000000e+07,-77.6212
5.077333333e+07,-77.1072
5.114666667e+07,-66.2821
5.152000000e+07,-64.2504
5.189333333e+07,-55.6682
5.226666667e+07,-60.331
5.264000000e+07,-68.0804
5.301333333e+07,-70.9222
5.338666667e+07,-70.0688
5.376000000e+07,-70.6872
5.413333333e+07,-69.6565
5.450666667e+07,-57.0541
5.488000000e+07,-58.8535
5.525333333e+07,-76.8193
5.562666667e+07,-70.1957
5.600000000e+07,-70.5527
5.637333333e+07,-77.8463
5.674666667e+07,-74.0819
5.712000000e+07,-53.3731
5.749333333e+07,-53.2737
5.786666667e+07,-69.5088
5.824000000e+07,-67.3404
5.861333333e+07,-74.6099
5.898666667e+07,-71.7283
5.936000000e+07,-69.6437
5.973333333e+07,-36.9279
6.010666667e+07,-34.6094
6.048000000e+07,-52.85
6.085333333e+07,-76.0624
6.122666667e+07,-75.705
6.160000000e+07,-74.677
6.197333333e+07,-75.5283
6.234666667e+07,-58.2932
6.272000000e+07,-53.03
6.309333333e+07,-67.0929
6.346666667e+07,-72.7897
6.384000000e+07,-71.1251
6.421333333e+07,-71.9459
6.458666667e+07,-72.151
6.496000000e+07,-59.8411
6.533333333e+07,-53.9294
6.570666667e+07,-60.9721
6.608000000e+07,-73.8223
6.645333333e+07,-71.5793
6.682666667e+07,-74.7522
6.720000000e+07,-69.7351
6.757333333e+07,-65.1643
6.794666667e+07,-57.058
6.832000000e+07,-60.0806
6.869333333e+07,-65.7601
6.906666667e+07,-69.4084
6.944000000e+07,-70.6439
6.981333333e+07,-74.4156
7.018666667e+07,-66.3966
7.056000000e+07,-55.2022
7.093333333e+07,-55.5535
7.130666667e+07,-61.9692
7.168000000e+07,-70.7627
7.205333333e+07,-64.7984
7.242666667e+07,-73.0313
7.280000000e+07,-70.8687
7.317333333e+07,-64.2173
7.354666667e+07,-61.4335
7.392000000e+07,-58.8695
7.429333333e+07,-63.3688
7.466666667e+07,-65.4416
7.504000000e+07,-71.5399
7.541333333e+07,-68.8133
7.578666667e+07,-62.5392
7.616000000e+07,-58.9619
7.653333333e+07,-57.2044
7.690666667e+07,-60.8873
7.728000000e+07,-66.4358
7.765333333e+07,-68.2686
7.802666667e+07,-67.1258
7.840000000e+07,-65.4648
7.877333333e+07,-64.385
7.914666667e+07,-54.6313
7.952000000e+07,-56.6838
7.989333333e+07,-67.1136
8.026666667e+07,-64.9439
8.064000000e+07,-65.4287
8.101333333e+07,-72.6564
8.138666667e+07,-62.9593
8.176000000e+07,-54.7327
8.213333333e+07,-54.9288
8.250666667e+07,-64.6809
8.288000000e+07,-74.0648
8.325333333e+07,-71.3802
8.362666667e+07,-59.7416
8.400000000e+07,-53.1367
8.437333333e+07,-55.4336
8.474666667e+07,-53.7844
8.512000000e+07,-70.9414
8.549333333e+07,-77.1165
8.586666667e+07,-78.0117
8.624000000e+07,-73.9711
8.661333333e+07,-69.8247
8.698666667e+07,-57.7622
8.736000000e+07,-53.5728
8.773333333e+07,-67.4122
8.810666667e+07,-72.206
8.848000000e+07,-71.3512
8.885333333e+07,-70.5353
8.922666667e+07,-68.1493
8.960000000e+07,-69.3663
8.997333333e+07,-64.9912
9.034666667e+07,-72.7437
9.072000000e+07,-74.9792
9.109333333e+07,-69.0094
9.146666667e+07,-73.2515
9.184000000e+07,-69.2859
9.221333333e+07,-63.0476
9.258666667e+07,-53.9755
9.296000000e+07,-56.5624
9.333333333e+07,-69.3637
9.370666667e+07,-73.9492
9.408000000e+07,-76.5818
9.445333333e+07,-69.7759
9.482666667e+07,-65.2612
9.520000000e+07,-53.8471
9.557333333e+07,-54.4462
9.594666667e+07,-55.5794
9.632000000e+07,-55.9617
9.669333333e+07,-68.3861
9.706666667e+07,-67.3124
9.744000000e+07,-67.086
9.781333333e+07,-57.7774
9.818666667e+07,-56.4039
9.856000000e+07,-60.5235
9.893333333e+07,-65.7156
9.930666667e+07,-75.8505
9.968000000e+07,-68.2034
1.000533333e+08,-68.672
1.004266667e+08,-57.6298
1.008000000e+08,-52.6709
1.011733333e+08,-58.817
1.015466667e+08,-59.6663
1.019200000e+08,-64.8512
1.022933333e+08,-65.8664
1.026666667e+08,-64.9127
1.030400000e+08,-61.6393
1.034133333e+08,-56.6286
1.037866667e+08,-56.2519
1.041600000e+08,-57.7314
1.045333333e+08,-65.0839
1.049066667e+08,-61.295
1.052800000e+08,-61.1526
1.056533333e+08,-61.6163
1.060266667e+08,-55.9535
1.064000000e+08,-53.3437
1.067733333e+08,-53.8896
1.071466667e+08,-63.2856
1.075200000e+08,-62.577
1.078933333e+08,-54.0782
1.082666667e+08,-57.2839
1.086400000e+08,-58.2027
1.090133333e+08,-58.7239
1.093866667e+08,-56.5674
1.097600000e+08,-65.8706
1.101333333e+08,-73.6547
1.105066667e+08,-65.9435
1.108800000e+08,-66.1723
1.112533333e+08,-60.8152
1.116266667e+08,-55.7457
1.120000000e+08,-50.9338
1.123733333e+08,-60.935
1.127466667e+08,-65.6331
1.131200000e+08,-66.0823
1.134933333e+08,-68.5878
1.138666667e+08,-63.0821
1.142400000e+08,-62.3713
1.146133333e+08,-54.8073
1.149866667e+08,-62.1119
1.153600000e+08,-71.8895
1.157333333e+08,-72.6313
1.161066667e+08,-70.4898
1.164800000e+08,-70.4628
1.168533333e+08,-67.3582
1.172266667e+08,-50.8934
1.176000000e+08,-53.1603
1.179733333e+08,-67.7278
1.183466667e+08,-71.3215
1.187200000e+08,-70.9637
1.190933333e+08,-74.7842
1.194666667e+08,-63.6884
1.198400000e+08,-36.5794
1.202133333e+08,-37.4886
1.205866667e+08,-67.2194
1.209600000e+08,-68.1628
1.213333333e+08,-68.0034
1.217066667e+08,-67.2922
1.220800000e+08,-70.4331
1.224533333e+08,-51.4471
1.228266667e+08,-50.1572
1.232000000e+08,-66.4573
1.235733333e+08,-66.8984
1.239466667e+08,-70.9698
1.243200000e+08,-66.8685
1.246933333e+08,-68.1876
1.250666667e+08,-54.588
1.254400000e+08,-50.8182
1.258133333e+08,-67.9889
1.261866667e+08,-70.4718
1.265600000e+08,-68.1275
1.269333333e+08,-65.6735
1.273066667e+08,-65.7882
1.276800000e+08,-56.3004
1.280533333e+08,-51.0599
1.284266667e+08,-58.1831
1.288000000e+08,-59.0262
1.291733333e+08,-62.7005
1.295466667e+08,-65.2551
1.299200000e+08,-65.4104
1.302933333e+08,-59.3795
1.306666667e+08,-53.7329
1.310400000e+08,-58.3045
1.314133333e+08,-60.5482
1.317866667e+08,-52.051
1.321600000e+08,-51.2686
1.325333333e+08,-67.2366
1.329066667e+08,-61.0873
1.332800000e+08,-51.6504
1.336533333e+08,-52.9959
1.340266667e+08,-54.3485
1.344000000e+08,-59.193
1.347733333e+08,-61.8756
1.351466667e+08,-61.773
1.355200000e+08,-60.4585
1.358933333e+08,-56.7894
1.362666667e+08,-55.6886
1.366400000e+08,-56.5768
1.370133333e+08,-62.1064
1.373866667e+08,-67.6141
1.377600000e+08,-70.6596
1.381333333e+08,-63.2834
1.385066667e+08,-57.7195
1.388800000e+08,-56.1
1.392533333e+08,-51.3312
1.396266667e+08,-58.0266
1.400000000e+08,-64.1439
1.403733333e+08,-63.2645
1.407466667e+08,-65.3157
1.411200000e+08,-62.3993
1.414933333e+08,-60.3564
1.418666667e+08,-52.9058
1.422400000e+08,-55.7835
1.426133333e+08,-70.4163
1.429866667e+08,-71.9418
1.433600000e+08,-74.2468
1.437333333e+08,-74.356
1.441066667e+08,-55.2998
1.444800000e+08,-49.3212
1.448533333e+08,-50.209
1.452266667e+08,-62.9745
1.456000000e+08,-71.1301
1.459733333e+08,-70.2021
1.463466667e+08,-74.9161
1.467200000e+08,-78.7934
1.470933333e+08,-52.4532
1.474666667e+08,-51.4863
1.478400000e+08,-71.1578
1.482133333e+08,-67.9426
1.485866667e+08,-72.1667
1.489600000e+08,-68.9148
1.493333333e+08,-70.4811
1.497066667e+08,-50.6053
1.500800000e+08,-47.3255
1.504533333e+08,-60.6774
1.508266667e+08,-66.7305
1.512000000e+08,-68.2658
1.515733333e+08,-72.3913
1.519466667e+08,-71.8493
1.523200000e+08,-58.2513
1.526933333e+08,-52.21
1.530666667e+08,-62.0913
1.534400000e+08,-71.421
1.538133333e+08,-78.8956
1.541866667e+08,-74.607
1.545600000e+08,-74.8792
1.549333333e+08,-59.0825
1.553066667e+08,-48.48
1.556800000e+08,-53.1195
1.560533333e+08,-48.9977
1.564266667e+08,-57.9054
1.568000000e+08,-69.1073
1.571733333e+08,-72.6161
1.575466667e+08,-59.3727
1.579200000e+08,-52.1504
1.582933333e+08,-53.5211
1.586666667e+08,-61.6807
1.590400000e+08,-68.9826
1.594133333e+08,-63.0709
1.597866667e+08,-64.6361
1.601600000e+08,-62.7261
1.605333333e+08,-52.1231
1.609066667e+08,-51.032
1.612800000e+08,-54.0738
1.616533333e+08,-56.8744
1.620266667e+08,-62.6859
1.624000000e+08,-62.8889
1.627733333e+08,-62.8462
1.631466667e+08,-57.7866
1.635200000e+08,-54.6674
1.638933333e+08,-58.5765
1.642666667e+08,-61.2441
1.646400000e+08,-64.6886
1.650133333e+08,-63.3559
1.653866667e+08,-60.6793
1.657600000e+08,-56.4449
1.661333333e+08,-52.556
1.665066667e+08,-49.4398
1.668800000e+08,-52.91
1.672533333e+08,-58.0666
1.676266667e+08,-61.1828
1.680000000e+08,-59.8213
1.683733333e+08,-60.016
1.687466667e+08,-55.9027
1.691200000e+08,-53.6836
1.694933333e+08,-54.9794
1.698666667e+08,-64.9747
1.702400000e+08,-66.5443
1.706133333e+08,-64.1238
1.709866667e+08,-61.0204
1.713600000e+08,-57.3342
1.717333333e+08,-49.4186
1.721066667e+08,-49.0954
1.724800000e+08,-60.4119
1.728533333e+08,-61.0073
1.732266667e+08,-62.7547
1.736000000e+08,-59.9915
1.739733333e+08,-59.8373
1.743466667e+08,-56.1664
1.747200000e+08,-53.1964
1.750933333e+08,-65.0441
1.754666667e+08,-64.7043
1.758400000e+08,-67.965
1.762133333e+08,-66.3525
1.765866667e+08,-68.3476
1.769600000e+08,-56.8295
1.773333333e+08,-47.9752
1.777066667e+08,-57.2265
1.780800000e+08,-73.4332
1.784533333e+08,-70.313
1.788266667e+08,-69.7826
1.792000000e+08,-67.169
1.795733333e+08,-59.8932
1.799466667e+08,-48.7265
1.803200000e+08,-53.4346
1.806933333e+08,-68.7907
1.810666667e+08,-69.5914
1.814400000e+08,-70.4411
1.818133333e+08,-69.7445
1.821866667e+08,-63.7332
1.825600000e+08,-47.2091
1.829333333e+08,-49.0179
1.833066667e+08,-68.4854
1.836800000e+08,-64.3951
1.840533333e+08,-64.128
1.844266667e+08,-68.1226
1.848000000e+08,-64.4478
1.851733333e+08,-53.1474
1.855466667e+08,-52.8855
1.859200000e+08,-63.1514
1.862933333e+08,-65.5804
1.866666667e+08,-70.149
1.870400000e+08,-70.7375
1.874133333e+08,-61.8539
1.877866667e+08,-49.8085
1.881600000e+08,-47.7659
1.885333333e+08,-56.2613
1.889066667e+08,-59.8631
1.892800000e+08,-66.2968
1.896533333e+08,-66.1573
1.900266667e+08,-62.1298
1.904000000e+08,-57.317
1.907733333e+08,-53.5711
1.911466667e+08,-59.4579
1.915200000e+08,-60.0485
1.918933333e+08,-53.6293
1.922666667e+08,-51.5729
1.926400000e+08,-62.9064
1.930133333e+08,-54.8017
1.933866667e+08,-49.703
1.937600000e+08,-50.4237
1.941333333e+08,-52.0064
1.945066667e+08,-63.094
1.948800000e+08,-63.1676
1.952533333e+08,-66.5708
1.956266667e+08,-60.6283
1.960000000e+08,-54.7486
1.963733333e+08,-55.7094
1.967466667e+08,-55.1714
1.971200000e+08,-62.8844
1.974933333e+08,-63.1724
1.978666667e+08,-60.0588
1.982400000e+08,-61.3651
1.986133333e+08,-55.4818
1.989866667e+08,-51.5989
1.993600000e+08,-48.9624
1.997333333e+08,-58.1751
2.001066667e+08,-63.6179
2.004800000e+08,-65.2088
2.008533333e+08,-64.7353
2.012266667e+08,-60.3433
2.016000000e+08,-59.2175
2.019733333e+08,-54.6619
2.023466667e+08,-63.8366
2.027200000e+08,-65.8993
2.030933333e+08,-65.7451
2.034666667e+08,-63.8295
2.038400000e+08,-48.4215
2.042133333e+08,-48.8426
2.045866667e+08,-47.1046
2.049600000e+08,-52.3211
2.053333333e+08,-67.7033
2.057066667e+08,-66.1396
2.060800000e+08,-68.4213
2.064533333e+08,-67.4622
2.068266667e+08,-70.5651
2.072000000e+08,-53.9024
2.075733333e+08,-56.0245
2.079466667e+08,-70.0737
2.083200000e+08,-68.1944
2.086933333e+08,-67.0699
2.090666667e+08,-65.1541
2.094400000e+08,-70.8027
2.098133333e+08,-47.242
2.101866667e+08,-47.0989
2.105600000e+08,-69.1671
2.109333333e+08,-65.6298
2.113066667e+08,-63.9799
2.116800000e+08,-67.2776
2.120533333e+08,-67.9848
2.124266667e+08,-54.1727
2.128000000e+08,-52.2798
2.131733333e+08,-70.6019
2.135466667e+08,-70.7733
2.139200000e+08,-69.0403
2.142933333e+08,-59.7195
2.146666667e+08,-60.0148
2.150400000e+08,-52.9013
2.154133333e+08,-47.0643
2.157866667e+08,-58.1233
2.161600000e+08,-59.6505
2.165333333e+08,-63.708
2.169066667e+08,-64.966
2.172800000e+08,-63.1048
2.176533333e+08,-62.9384
2.180266667e+08,-53.7874
2.184000000e+08,-62.6818
2.187733333e+08,-66.5397
2.191466667e+08,-66.144
2.195200000e+08,-63.6708
2.198933333e+08,-63.2578
2.202666667e+08,-54.7776
2.206400000e+08,-47.8041
2.210133333e+08,-50.4928
2.213866667e+08,-55.2061
2.217600000e+08,-63.1845
2.221333333e+08,-60.0955
2.225066667e+08,-61.1139
2.228800000e+08,-64.677
2.232533333e+08,-55.2914
2.236266667e+08,-55.1478
2.240000000e+08,-55.9239
2.243733333e+08,-62.4811
2.247466667e+08,-68.9719
2.251200000e+08,-64.4026
2.254933333e+08,-60.1197
2.258666667e+08,-53.3664
2.262400000e+08,-51.5981
2.266133333e+08,-50.7367
2.269866667e+08,-57.428
2.273600000e+08,-62.7118
2.277333333e+08,-52.0996
2.281066667e+08,-49.5839
2.284800000e+08,-61.6281
2.288533333e+08,-60.2075
2.292266667e+08,-55.1969
2.296000000e+08,-60.058
2.299733333e+08,-62.3398
2.303466667e+08,-62.4337
2.307200000e+08,-64.9985
2.310933333e+08,-61.263
2.314666667e+08,-56.3137
2.318400000e+08,-47.3479
2.322133333e+08,-49.5312
2.325866667e+08,-63.3455
2.329600000e+08,-66.0274
2.333333333e+08,-66.5248
2.337066667e+08,-69.0879
2.340800000e+08,-65.8365
2.344533333e+08,-53.1395
2.348266667e+08,-53.4365
2.352000000e+08,-71.6558
2.355733333e+08,-69.9847
2.359466667e+08,-66.4822
2.363200000e+08,-66.4373
2.366933333e+08,-64.1417
2.370666667e+08,-48.4315
2.374400000e+08,-46.6348
2.378133333e+08,-62.3796
2.381866667e+08,-69.6059
2.385600000e+08,-75.8972
2.389333333e+08,-74.6165
2.393066667e+08,-68.9534
2.396800000e+08,-54.0279
2.400533333e+08,-51.1533
2.404266667e+08,-51.6844
2.408000000e+08,-67.6419
2.411733333e+08,-71.3642
2.415466667e+08,-78.738
2.419200000e+08,-82.0223
2.422933333e+08,-56.4104
2.426666667e+08,-46.7235
2.430400000e+08,-54.7581
2.434133333e+08,-70.2264
2.437866667e+08,-66.5498
2.441600000e+08,-66.2594
2.445333333e+08,-66.5315
2.449066667e+08,-63.9893
2.452800000e+08,-54.3148
2.456533333e+08,-58.0106
2.460266667e+08,-68.789
2.464000000e+08,-71.7982
2.467733333e+08,-72.9368
2.471466667e+08,-63.7735
2.475200000e+08,-59.5342
2.478933333e+08,-48.1679
2.482666667e+08,-48.6929
2.486400000e+08,-56.9904
2.490133333e+08,-61.5493
2.493866667e+08,-62.6221
2.497600000e+08,-64.1139
2.501333333e+08,-65.8933
2.505066667e+08,-56.6014
2.508800000e+08,-54.8819
2.512533333e+08,-60.9901
2.516266667e+08,-58.731
2.520000000e+08,-49.2866
2.523733333e+08,-58.2014
2.527466667e+08,-60.3481
2.531200000e+08,-53.8944
2.534933333e+08,-49.9834
2.538666667e+08,-52.1792
2.542400000e+08,-56.8481
2.546133333e+08,-59.8239
2.549866667e+08,-63.1518
2.553600000e+08,-64.1662
2.557333333e+08,-63.7249
2.561066667e+08,-59.8346
2.564800000e+08,-56.7347
2.568533333e+08,-59.0299
2.572266667e+08,-63.3625
2.576000000e+08,-65.1571
2.579733333e+08,-62.8547
2.583466667e+08,-61.2829
2.587200000e+08,-54.2377
2.590933333e+08,-48.6988
2.594666667e+08,-49.5494
2.598400000e+08,-63.5853
2.602133333e+08,-61.5289
2.605866667e+08,-60.6914
2.609600000e+08,-64.1342
2.613333333e+08,-65.1366
2.617066667e+08,-55.1311
2.620800000e+08,-54.0361
2.624533333e+08,-65.7343
2.628266667e+08,-68.3325
2.632000000e+08,-71.8454
2.635733333e+08,-78.2411
2.639466667e+08,-58.664
2.643200000e+08,-52.4413
2.646933333e+08,-47.7434
2.650666667e+08,-57.8269
2.654400000e+08,-64.1343
2.658133333e+08,-64.35
2.661866667e+08,-67.4597
2.665600000e+08,-69.5932
2.669333333e+08,-63.4991
2.673066667e+08,-54.0196
2.676800000e+08,-63.0796
2.680533333e+08,-75.324
2.684266667e+08,-71.1702
2.688000000e+08,-71.6303
2.691733333e+08,-67.9973
2.695466667e+08,-63.228
2.699200000e+08,-47.2378
2.702933333e+08,-50.7327
2.706666667e+08,-68.9667
2.710400000e+08,-69.1743
2.714133333e+08,-67.4423
2.717866667e+08,-69.8964
2.721600000e+08,-68.8048
2.725333333e+08,-54.6745
2.729066667e+08,-55.6761
2.732800000e+08,-69.1309
2.736533333e+08,-74.7264
2.740266667e+08,-73.6609
2.744000000e+08,-63.8216
2.747733333e+08,-62.0282
2.751466667e+08,-49.986
2.755200000e+08,-49.0378
2.758933333e+08,-47.0238
2.762666667e+08,-49.1893
2.766400000e+08,-67.5756
2.770133333e+08,-73.214
2.773866667e+08,-73.7294
2.777600000e+08,-58.8052
2.781333333e+08,-55.3684
2.785066667e+08,-62.2771
2.788800000e+08,-64.3664
2.792533333e+08,-73.1249
2.796266667e+08,-65.9112
2.800000000e+08,-63.4619

