Model,MDO3104
Firmware Version,1.30

Waveform Type,RF_FD
Point Format,Y
Horizontal Units,Hz
Horizontal Scale,2.8e+07
,
Sample Interval,373333
Record Length,751
Gating,0.133155792277% to 100.0%
Probe Attenuation,1
Vertical Units,dBm
Vertical Offset,0
Vertical Scale,10
Vertical Position,0
Center Frequency,1.4e+08
Span,2.8e+08
Reference Level,-15
Label,
FREQUENCY,FD NORM
0.000000000e+00,-65.0499
3.733333333e+05,-74.2762
7.466666667e+05,-82.2401
1.120000000e+06,-78.0461
1.493333333e+06,-69.1309
1.866666667e+06,-66.8351
2.240000000e+06,-70.6855
2.613333333e+06,-65.0763
2.986666667e+06,-71.29
3.360000000e+06,-58.5664
3.733333333e+06,-59.5441
4.106666667e+06,-64.5726
4.480000000e+06,-65.7735
4.853333333e+06,-73.2393
5.226666667e+06,-70.3146
5.600000000e+06,-71.187
5.973333333e+06,-62.9317
6.346666667e+06,-73.0587
6.720000000e+06,-72.621
7.093333333e+06,-76.2597
7.466666667e+06,-70.7327
7.840000000e+06,-67.4345
8.213333333e+06,-66.9739
8.586666667e+06,-66.4376
8.960000000e+06,-68.0007
9.333333333e+06,-67.7676
9.706666667e+06,-70.2347
1.008000000e+07,-69.3564
1.045333333e+07,-66.4787
1.082666667e+07,-64.9682
1.120000000e+07,-70.4287
1.157333333e+07,-67.9573
1.194666667e+07,-57.8378
1.232000000e+07,-66.5959
1.269333333e+07,-69.9404
1.306666667e+07,-65.1174
1.344000000e+07,-70.5148
1.381333333e+07,-69.923
1.418666667e+07,-70.247
1.456000000e+07,-70.7786
1.493333333e+07,-74.2693
1.530666667e+07,-67.032
1.568000000e+07,-66.3052
1.605333333e+07,-69.8742
1.642666667e+07,-61.9212
1.680000000e+07,-64.9238
1.717333333e+07,-67.2419
1.754666667e+07,-68.2737
1.792000000e+07,-56.1385
1.829333333e+07,-59.6215
1.866666667e+07,-64.1342
1.904000000e+07,-64.4069
1.941333333e+07,-65.376
1.978666667e+07,-72.5627
2.016000000e+07,-74.7162
2.053333333e+07,-69.6518
2.090666667e+07,-77.9865
2.128000000e+07,-71.8994
2.165333333e+07,-67.1516
2.202666667e+07,-66.6174
2.240000000e+07,-71.8798
2.277333333e+07,-71.1735
2.314666667e+07,-68.2399
2.352000000e+07,-66.7431
2.389333333e+07,-69.6387
2.426666667e+07,-60.7375
2.464000000e+07,-56.6513
2.501333333e+07,-52.5666
2.538666667e+07,-61.0947
2.576000000e+07,-65.8804
2.613333333e+07,-67.4984
2.650666667e+07,-68.9187
2.688000000e+07,-69.7339
2.725333333e+07,-59.498
2.762666667e+07,-63.0765
2.800000000e+07,-68.197
2.837333333e+07,-68.1658
2.874666667e+07,-67.0239
2.912000000e+07,-65.7331
2.949333333e+07,-69.1568
2.986666667e+07,-56.6494
3.024000000e+07,-57.9474
3.061333333e+07,-71.9858
3.098666667e+07,-79.2094
3.136000000e+07,-76.806
3.173333333e+07,-76.845
3.210666667e+07,-75.4702
3.248000000e+07,-63.2254
3.285333333e+07,-61.7027
3.322666667e+07,-70.7831
3.360000000e+07,-71.2462
3.397333333e+07,-75.8459
3.434666667e+07,-73.9739
3.472000000e+07,-75.7591
3.509333333e+07,-62.5004
3.546666667e+07,-58.6999
3.584000000e+07,-46.0636
3.621333333e+07,-47.031
3.658666667e+07,-72.7958
3.696000000e+07,-70.7016
3.733333333e+07,-74.8567
3.770666667e+07,-70.4602
3.808000000e+07,-60.9226
3.845333333e+07,-66.6554
3.882666667e+07,-72.6535
3.920000000e+07,-74.4748
3.957333333e+07,-74.3867
3.994666667e+07,-70.2148
4.032000000e+07,-68.4513
4.069333333e+07,-58.9153
4.106666667e+07,-60.162
4.144000000e+07,-68.6826
4.181333333e+07,-54.1036
4.218666667e+07,-53.5174
4.256000000e+07,-71.9423
4.293333333e+07,-69.3471
4.330666667e+07,-60.5056
4.368000000e+07,-61.0229
4.405333333e+07,-64.9336
4.442666667e+07,-71.4713
4.480000000e+07,-70.4641
4.517333333e+07,-71.0704
4.554666667e+07,-77.0486
4.592000000e+07,-63.6616
4.629333333e+07,-57.9896
4.666666667e+07,-58.1993
4.704000000e+07,-70.1425
4.741333333e+07,-67.4014
4.778666667e+07,-37.2381
4.816000000e+07,-36.4584
4.853333333e+07,-59.8967
4.890666667e+07,-60.9703
4.928000000e+07,-58.828
4.965333333e+07,-65.7108
5.002666667e+07,-74.4045
5.040000000e+07,-74.9827
5.077333333e+07,-73.8449
5.114666667e+07,-68.0499
5.152000000e+07,-61.4217
5.189333333e+07,-55.9763
5.226666667e+07,-64.7103
5.264000000e+07,-69.5231
5.301333333e+07,-71.1706
5.338666667e+07,-69.7574
5.376000000e+07,-49.4739
5.413333333e+07,-48.2192
5.450666667e+07,-57.1204
5.488000000e+07,-59.5076
5.525333333e+07,-78.2753
5.562666667e+07,-75.3525
5.600000000e+07,-71.9286
5.637333333e+07,-74.7877
5.674666667e+07,-67.1726
5.712000000e+07,-53.6949
5.749333333e+07,-53.9995
5.786666667e+07,-71.6914
5.824000000e+07,-73.6308
5.861333333e+07,-74.0495
5.898666667e+07,-77.2162
5.936000000e+07,-74.8031
5.973333333e+07,-35.2393
6.010666667e+07,-33.0088
6.048000000e+07,-51.1547
6.085333333e+07,-72.6637
6.122666667e+07,-72.0871
6.160000000e+07,-69.1686
6.197333333e+07,-70.7579
6.234666667e+07,-58.9928
6.272000000e+07,-52.1396
6.309333333e+07,-61.2219
6.346666667e+07,-71.9048
6.384000000e+07,-72.62
6.421333333e+07,-73.2799
6.458666667e+07,-72.2461
6.496000000e+07,-68.0818
6.533333333e+07,-53.952
6.570666667e+07,-49.2291
6.608000000e+07,-45.1086
6.645333333e+07,-58.0234
6.682666667e+07,-67.3791
6.720000000e+07,-65.1216
6.757333333e+07,-75.2616
6.794666667e+07,-57.479
6.832000000e+07,-58.9814
6.869333333e+07,-65.1526
6.906666667e+07,-67.9441
6.944000000e+07,-78.3541
6.981333333e+07,-70.3031
7.018666667e+07,-68.1482
7.056000000e+07,-58.1637
7.093333333e+07,-57.2609
7.130666667e+07,-61.4325
7.168000000e+07,-46.9406
7.205333333e+07,-41.7331
7.242666667e+07,-54.8298
7.280000000e+07,-72.5344
7.317333333e+07,-59.7516
7.354666667e+07,-56.5658
7.392000000e+07,-58.4656
7.429333333e+07,-64.4695
7.466666667e+07,-66.3626
7.504000000e+07,-66.9693
7.541333333e+07,-69.8569
7.578666667e+07,-65.563
7.616000000e+07,-57.3553
7.653333333e+07,-57.4837
7.690666667e+07,-64.3775
7.728000000e+07,-65.4098
7.765333333e+07,-55.4336
7.802666667e+07,-48.6208
7.840000000e+07,-61.4629
7.877333333e+07,-63.7198
7.914666667e+07,-54.8422
7.952000000e+07,-59.1641
7.989333333e+07,-63.8296
8.026666667e+07,-71.7035
8.064000000e+07,-70.8628
8.101333333e+07,-66.8238
8.138666667e+07,-63.0508
8.176000000e+07,-55.2984
8.213333333e+07,-56.2993
8.250666667e+07,-70.4994
8.288000000e+07,-79.0206
8.325333333e+07,-72.8223
8.362666667e+07,-50.6123
8.400000000e+07,-43.5965
8.437333333e+07,-53.1628
8.474666667e+07,-55.6638
8.512000000e+07,-66.2437
8.549333333e+07,-70.8506
8.586666667e+07,-69.931
8.624000000e+07,-68.8654
8.661333333e+07,-72.5561
8.698666667e+07,-57.2901
8.736000000e+07,-53.4562
8.773333333e+07,-66.7915
8.810666667e+07,-68.3302
8.848000000e+07,-73.8293
8.885333333e+07,-72.1524
8.922666667e+07,-70.6071
8.960000000e+07,-55.5984
8.997333333e+07,-45.9185
9.034666667e+07,-52.9318
9.072000000e+07,-75.5943
9.109333333e+07,-71.7214
9.146666667e+07,-73.8286
9.184000000e+07,-74.3344
9.221333333e+07,-69.2123
9.258666667e+07,-54.9449
9.296000000e+07,-56.9746
9.333333333e+07,-65.9964
9.370666667e+07,-72.5276
9.408000000e+07,-72.4629
9.445333333e+07,-71.9202
9.482666667e+07,-68.0974
9.520000000e+07,-53.248
9.557333333e+07,-52.9145
9.594666667e+07,-48.8331
9.632000000e+07,-52.3173
9.669333333e+07,-70.0992
9.706666667e+07,-69.1691
9.744000000e+07,-68.9282
9.781333333e+07,-58.1026
9.818666667e+07,-54.9239
9.856000000e+07,-61.4545
9.893333333e+07,-74.2033
9.930666667e+07,-69.318
9.968000000e+07,-67.3823
1.000533333e+08,-67.2087
1.004266667e+08,-62.0049
1.008000000e+08,-53.7142
1.011733333e+08,-56.6122
1.015466667e+08,-66.4068
1.019200000e+08,-56.6215
1.022933333e+08,-60.6485
1.026666667e+08,-63.4439
1.030400000e+08,-62.5423
1.034133333e+08,-56.9268
1.037866667e+08,-58.1507
1.041600000e+08,-66.8647
1.045333333e+08,-70.2483
1.049066667e+08,-68.3787
1.052800000e+08,-69.8649
1.056533333e+08,-65.6383
1.060266667e+08,-54.0973
1.064000000e+08,-53.7157
1.067733333e+08,-56.3555
1.071466667e+08,-63.4917
1.075200000e+08,-61.1288
1.078933333e+08,-44.0342
1.082666667e+08,-46.363
1.086400000e+08,-62.2062
1.090133333e+08,-55.2375
1.093866667e+08,-55.2396
1.097600000e+08,-71.228
1.101333333e+08,-72.4224
1.105066667e+08,-68.1923
1.108800000e+08,-68.8475
1.112533333e+08,-64.2374
1.116266667e+08,-54.0467
1.120000000e+08,-52.0543
1.123733333e+08,-62.3739
1.127466667e+08,-67.2964
1.131200000e+08,-68.4436
1.134933333e+08,-71.396
1.138666667e+08,-62.2245
1.142400000e+08,-60.3886
1.146133333e+08,-54.4645
1.149866667e+08,-65.1058
1.153600000e+08,-72.3757
1.157333333e+08,-75.174
1.161066667e+08,-73.4927
1.164800000e+08,-75.1424
1.168533333e+08,-61.8763
1.172266667e+08,-50.065
1.176000000e+08,-53.3578
1.179733333e+08,-70.9191
1.183466667e+08,-70.2583
1.187200000e+08,-70.0409
1.190933333e+08,-66.9059
1.194666667e+08,-59.6894
1.198400000e+08,-34.2589
1.202133333e+08,-35.0922
1.205866667e+08,-67.5317
1.209600000e+08,-68.8176
1.213333333e+08,-69.0558
1.217066667e+08,-77.8327
1.220800000e+08,-74.5148
1.224533333e+08,-51.6569
1.228266667e+08,-49.8349
1.232000000e+08,-68.25
1.235733333e+08,-72.3111
1.239466667e+08,-74.107
1.243200000e+08,-65.3823
1.246933333e+08,-64.9822
1.250666667e+08,-57.0484
1.254400000e+08,-51.5793
1.258133333e+08,-54.8499
1.261866667e+08,-54.2836
1.265600000e+08,-65.9981
1.269333333e+08,-71.981
1.273066667e+08,-69.5964
1.276800000e+08,-62.623
1.280533333e+08,-50.4471
1.284266667e+08,-53.5843
1.288000000e+08,-63.539
1.291733333e+08,-64.9471
1.295466667e+08,-70.6137
1.299200000e+08,-68.3804
1.302933333e+08,-63.1355
1.306666667e+08,-52.186
1.310400000e+08,-53.4835
1.314133333e+08,-62.2323
1.317866667e+08,-46.2806
1.321600000e+08,-45.6024
1.325333333e+08,-63.7314
1.329066667e+08,-63.3373
1.332800000e+08,-52.3223
1.336533333e+08,-51.8636
1.340266667e+08,-53.469
1.344000000e+08,-66.4105
1.347733333e+08,-66.8257
1.351466667e+08,-68.3386
1.355200000e+08,-65.1051
1.358933333e+08,-56.8389
1.362666667e+08,-53.8811
1.366400000e+08,-53.4262
1.370133333e+08,-65.6176
1.373866667e+08,-67.5705
1.377600000e+08,-65.8653
1.381333333e+08,-64.3872
1.385066667e+08,-64.052
1.388800000e+08,-53.3677
1.392533333e+08,-50.309
1.396266667e+08,-60.2128
1.400000000e+08,-63.6925
1.403733333e+08,-66.8907
1.407466667e+08,-66.6222
1.411200000e+08,-67.2424
1.414933333e+08,-59.8965
1.418666667e+08,-52.8697
1.422400000e+08,-57.5008
1.426133333e+08,-67.9059
1.429866667e+08,-69.0082
1.433600000e+08,-64.1283
1.437333333e+08,-47.8042
1.441066667e+08,-45.9225
1.444800000e+08,-48.9408
1.448533333e+08,-51.1555
1.452266667e+08,-71.0192
1.456000000e+08,-74.9429
1.459733333e+08,-75.8005
1.463466667e+08,-66.9012
1.467200000e+08,-65.4323
1.470933333e+08,-52.7732
1.474666667e+08,-52.5368
1.478400000e+08,-73.8965
1.482133333e+08,-68.3069
1.485866667e+08,-68.0019
1.489600000e+08,-67.1016
1.493333333e+08,-68.8406
1.497066667e+08,-52.7965
1.500800000e+08,-49.1027
1.504533333e+08,-61.7294
1.508266667e+08,-68.2156
1.512000000e+08,-70.2309
1.515733333e+08,-69.8197
1.519466667e+08,-71.8402
1.523200000e+08,-59.3874
1.526933333e+08,-52.3042
1.530666667e+08,-61.221
1.534400000e+08,-67.6722
1.538133333e+08,-67.4056
1.541866667e+08,-66.6488
1.545600000e+08,-67.386
1.549333333e+08,-63.7463
1.553066667e+08,-48.9084
1.556800000e+08,-51.5204
1.560533333e+08,-48.3226
1.564266667e+08,-59.4984
1.568000000e+08,-64.136
1.571733333e+08,-69.7107
1.575466667e+08,-67.5677
1.579200000e+08,-52.0079
1.582933333e+08,-52.4536
1.586666667e+08,-59.2785
1.590400000e+08,-65.6931
1.594133333e+08,-67.2206
1.597866667e+08,-70.4377
1.601600000e+08,-63.4026
1.605333333e+08,-50.9956
1.609066667e+08,-49.1893
1.612800000e+08,-53.6389
1.616533333e+08,-60.4616
1.620266667e+08,-59.6856
1.624000000e+08,-64.5132
1.627733333e+08,-67.047
1.631466667e+08,-61.0493
1.635200000e+08,-53.6262
1.638933333e+08,-56.1508
1.642666667e+08,-63.9536
1.646400000e+08,-67.1001
1.650133333e+08,-62.8959
1.653866667e+08,-62.1591
1.657600000e+08,-59.699
1.661333333e+08,-50.9779
1.665066667e+08,-49.9315
1.668800000e+08,-57.1451
1.672533333e+08,-60.5731
1.676266667e+08,-53.4527
1.680000000e+08,-44.847
1.683733333e+08,-50.9449
1.687466667e+08,-57.4999
1.691200000e+08,-52.7926
1.694933333e+08,-55.6665
1.698666667e+08,-61.8662
1.702400000e+08,-70.3152
1.706133333e+08,-65.603
1.709866667e+08,-66.1119
1.713600000e+08,-56.6081
1.717333333e+08,-48.6036
1.721066667e+08,-49.1341
1.724800000e+08,-64.1624
1.728533333e+08,-69.4252
1.732266667e+08,-68.1782
1.736000000e+08,-64.2195
1.739733333e+08,-60.4685
1.743466667e+08,-55.6072
1.747200000e+08,-53.1414
1.750933333e+08,-68.3674
1.754666667e+08,-70.1576
1.758400000e+08,-69.3362
1.762133333e+08,-66.3237
1.765866667e+08,-66.0314
1.769600000e+08,-52.9313
1.773333333e+08,-47.6512
1.777066667e+08,-59.375
1.780800000e+08,-69.9639
1.784533333e+08,-71.794
1.788266667e+08,-68.8487
1.792000000e+08,-69.434
1.795733333e+08,-59.0123
1.799466667e+08,-43.9806
1.803200000e+08,-48.8959
1.806933333e+08,-69.6437
1.810666667e+08,-68.8645
1.814400000e+08,-66.8941
1.818133333e+08,-73.0116
1.821866667e+08,-64.1425
1.825600000e+08,-47.4034
1.829333333e+08,-48.8122
1.833066667e+08,-69.1927
1.836800000e+08,-67.0586
1.840533333e+08,-69.2505
1.844266667e+08,-68.2196
1.848000000e+08,-68.3775
1.851733333e+08,-54.2777
1.855466667e+08,-52.9407
1.859200000e+08,-58.4919
1.862933333e+08,-63.5635
1.866666667e+08,-62.2596
1.870400000e+08,-65.3925
1.874133333e+08,-64.5775
1.877866667e+08,-52.5953
1.881600000e+08,-48.3469
1.885333333e+08,-53.2339
1.889066667e+08,-63.1485
1.892800000e+08,-64.3567
1.896533333e+08,-65.1643
1.900266667e+08,-68.0168
1.904000000e+08,-59.4227
1.907733333e+08,-53.1297
1.911466667e+08,-57.8687
1.915200000e+08,-54.0413
1.918933333e+08,-47.7819
1.922666667e+08,-49.7961
1.926400000e+08,-65.4559
1.930133333e+08,-58.405
1.933866667e+08,-49.8541
1.937600000e+08,-50.9488
1.941333333e+08,-58.9581
1.945066667e+08,-66.415
1.948800000e+08,-66.8497
1.952533333e+08,-64.1077
1.956266667e+08,-65.3919
1.960000000e+08,-55.465
1.963733333e+08,-54.3081
1.967466667e+08,-55.6895
1.971200000e+08,-65.2694
1.974933333e+08,-63.8354
1.978666667e+08,-57.822
1.982400000e+08,-63.3977
1.986133333e+08,-56.7011
1.989866667e+08,-49.2877
1.993600000e+08,-49.0966
1.997333333e+08,-59.5829
2.001066667e+08,-62.082
2.004800000e+08,-68.5992
2.008533333e+08,-64.7227
2.012266667e+08,-69.2096
2.016000000e+08,-57.1513
2.019733333e+08,-53.2315
2.023466667e+08,-64.399
2.027200000e+08,-65.8885
2.030933333e+08,-66.1597
2.034666667e+08,-68.7662
2.038400000e+08,-48.3508
2.042133333e+08,-48.9778
2.045866667e+08,-47.2326
2.049600000e+08,-54.0034
2.053333333e+08,-71.0121
2.057066667e+08,-70.532
2.060800000e+08,-71.8606
2.064533333e+08,-64.7541
2.068266667e+08,-64.0162
2.072000000e+08,-53.153
2.075733333e+08,-56.8731
2.079466667e+08,-67.6427
2.083200000e+08,-68.0552
2.086933333e+08,-67.1377
2.090666667e+08,-67.92
2.094400000e+08,-68.3547
2.098133333e+08,-46.1142
2.101866667e+08,-45.8904
2.105600000e+08,-69.396
2.109333333e+08,-65.8121
2.113066667e+08,-66.638
2.116800000e+08,-60.7885
2.120533333e+08,-61.39
2.124266667e+08,-52.8571
2.128000000e+08,-50.6375
2.131733333e+08,-65.7376
2.135466667e+08,-64.6322
2.139200000e+08,-63.7579
2.142933333e+08,-67.8953
2.146666667e+08,-67.4533
2.150400000e+08,-52.9833
2.154133333e+08,-46.6649
2.157866667e+08,-48.444
2.161600000e+08,-49.4548
2.165333333e+08,-68.4213
2.169066667e+08,-68.133
2.172800000e+08,-66.991
2.176533333e+08,-68.1856
2.180266667e+08,-56.5379
2.184000000e+08,-61.9011
2.187733333e+08,-61.8098
2.191466667e+08,-66.4827
2.195200000e+08,-64.51
2.198933333e+08,-65.5594
2.202666667e+08,-63.3872
2.206400000e+08,-48.18
2.210133333e+08,-48.5325
2.213866667e+08,-53.8507
2.217600000e+08,-65.6588
2.221333333e+08,-69.5808
2.225066667e+08,-66.2983
2.228800000e+08,-62.1939
2.232533333e+08,-55.6268
2.236266667e+08,-54.2924
2.240000000e+08,-58.8958
2.243733333e+08,-63.7816
2.247466667e+08,-62.4727
2.251200000e+08,-62.4527
2.254933333e+08,-63.9134
2.258666667e+08,-56.8602
2.262400000e+08,-50.3651
2.266133333e+08,-49.3279
2.269866667e+08,-59.5159
2.273600000e+08,-63.8907
2.277333333e+08,-47.5796
2.281066667e+08,-45.3529
2.284800000e+08,-67.2331
2.288533333e+08,-58.5754
2.292266667e+08,-53.2633
2.296000000e+08,-59.3932
2.299733333e+08,-67.1102
2.303466667e+08,-65.8
2.307200000e+08,-67.6425
2.310933333e+08,-63.675
2.314666667e+08,-53.725
2.318400000e+08,-47.2255
2.322133333e+08,-52.1026
2.325866667e+08,-64.141
2.329600000e+08,-67.7186
2.333333333e+08,-67.8065
2.337066667e+08,-65.2455
2.340800000e+08,-68.0381
2.344533333e+08,-53.3336
2.348266667e+08,-54.6335
2.352000000e+08,-70.5604
2.355733333e+08,-70.943
2.359466667e+08,-72.8314
2.363200000e+08,-70.904
2.366933333e+08,-67.0901
2.370666667e+08,-48.1463
2.374400000e+08,-46.6371
2.378133333e+08,-67.0324
2.381866667e+08,-67.8838
2.385600000e+08,-70.4876
2.389333333e+08,-69.8981
2.393066667e+08,-57.8381
2.396800000e+08,-46.3242
2.400533333e+08,-46.4359
2.404266667e+08,-61.3812
2.408000000e+08,-75.7413
2.411733333e+08,-74.0992
2.415466667e+08,-70.0814
2.419200000e+08,-70.7996
2.422933333e+08,-59.0715
2.426666667e+08,-46.6271
2.430400000e+08,-52.069
2.434133333e+08,-67.3188
2.437866667e+08,-75.4143
2.441600000e+08,-72.3019
2.445333333e+08,-72.476
2.449066667e+08,-67.4506
2.452800000e+08,-53.3809
2.456533333e+08,-55.1077
2.460266667e+08,-66.8929
2.464000000e+08,-66.9292
2.467733333e+08,-68.2106
2.471466667e+08,-72.4759
2.475200000e+08,-66.5104
2.478933333e+08,-47.9192
2.482666667e+08,-47.3878
2.486400000e+08,-56.7806
2.490133333e+08,-63.3992
2.493866667e+08,-65.99
2.497600000e+08,-69.1834
2.501333333e+08,-67.6762
2.505066667e+08,-58.3481
2.508800000e+08,-55.8885
2.512533333e+08,-60.5354
2.516266667e+08,-49.6225
2.520000000e+08,-43.2098
2.523733333e+08,-51.8879
2.527466667e+08,-69.6404
2.531200000e+08,-58.4676
2.534933333e+08,-49.7713
2.538666667e+08,-50.7914
2.542400000e+08,-61.2285
2.546133333e+08,-66.515
2.549866667e+08,-66.0285
2.553600000e+08,-68.3012
2.557333333e+08,-66.0096
2.561066667e+08,-58.3263
2.564800000e+08,-56.6642
2.568533333e+08,-61.3376
2.572266667e+08,-64.0511
2.576000000e+08,-67.037
2.579733333e+08,-63.3949
2.583466667e+08,-64.0023
2.587200000e+08,-53.8998
2.590933333e+08,-48.3917
2.594666667e+08,-50.878
2.598400000e+08,-64.658
2.602133333e+08,-66.2598
2.605866667e+08,-68.871
2.609600000e+08,-67.7078
2.613333333e+08,-66.8879
2.617066667e+08,-55.8411
2.620800000e+08,-55.0836
2.624533333e+08,-68.3063
2.628266667e+08,-75.2987
2.632000000e+08,-70.8266
2.635733333e+08,-56.3732
2.639466667e+08,-49.6064
2.643200000e+08,-51.1366
2.646933333e+08,-48.1488
2.650666667e+08,-64.158
2.654400000e+08,-66.7723
2.658133333e+08,-68.4161
2.661866667e+08,-65.6357
2.665600000e+08,-72.561
2.669333333e+08,-60.5076
2.673066667e+08,-53.9442
2.676800000e+08,-61.7477
2.680533333e+08,-74.2418
2.684266667e+08,-73.9538
2.688000000e+08,-71.0266
2.691733333e+08,-70.3952
2.695466667e+08,-68.8334
2.699200000e+08,-49.9073
2.702933333e+08,-52.9207
2.706666667e+08,-73.2655
2.710400000e+08,-75.5241
2.714133333e+08,-74.7099
2.717866667e+08,-73.6618
2.721600000e+08,-73.5099
2.725333333e+08,-53.768
2.729066667e+08,-54.7106
2.732800000e+08,-73.6118
2.736533333e+08,-70.0328
2.740266667e+08,-71.8767
2.744000000e+08,-67.7666
2.747733333e+08,-70.1933
2.751466667e+08,-49.991
2.755200000e+08,-48.1239
2.758933333e+08,-50.0716
2.762666667e+08,-52.6229
2.766400000e+08,-68.1687
2.770133333e+08,-65.4858
2.773866667e+08,-68.0941
2.777600000e+08,-61.1905
2.781333333e+08,-54.8171
2.785066667e+08,-61.5897
2.788800000e+08,-64.5432
2.792533333e+08,-67.7072
2.796266667e+08,-66.0684
2.800000000e+08,-67.0439

