Model,MDO3104
Firmware Version,1.30

Waveform Type,RF_FD
Point Format,Y
Horizontal Units,Hz
Horizontal Scale,2.8e+07
,
Sample Interval,373333
Record Length,751
Gating,0.133155792277% to 100.0%
Probe Attenuation,1
Vertical Units,dBm
Vertical Offset,0
Vertical Scale,10
Vertical Position,0
Center Frequency,1.4e+08
Span,2.8e+08
Reference Level,-15
Label,
FREQUENCY,FD NORM
0.000000000e+00,-65.6119
3.733333333e+05,-74.3439
7.466666667e+05,-81.0076
1.120000000e+06,-73.5908
1.493333333e+06,-68.9338
1.866666667e+06,-68.9455
2.240000000e+06,-78.4683
2.613333333e+06,-68.8127
2.986666667e+06,-70.3454
3.360000000e+06,-61.2198
3.733333333e+06,-63.997
4.106666667e+06,-66.2151
4.480000000e+06,-66.2826
4.853333333e+06,-69.6113
5.226666667e+06,-66.4979
5.600000000e+06,-67.7375
5.973333333e+06,-60.2842
6.346666667e+06,-65.9352
6.720000000e+06,-68.8205
7.093333333e+06,-71.6988
7.466666667e+06,-72.2361
7.840000000e+06,-66.5694
8.213333333e+06,-65.9929
8.586666667e+06,-74.1601
8.960000000e+06,-73.1482
9.333333333e+06,-74.9828
9.706666667e+06,-75.8599
1.008000000e+07,-71.1876
1.045333333e+07,-73.1015
1.082666667e+07,-70.1561
1.120000000e+07,-70.9016
1.157333333e+07,-70.761
1.194666667e+07,-59.0743
1.232000000e+07,-60.3018
1.269333333e+07,-71.1874
1.306666667e+07,-73.4112
1.344000000e+07,-67.767
1.381333333e+07,-65.4102
1.418666667e+07,-70.5469
1.456000000e+07,-70.392
1.493333333e+07,-71.2812
1.530666667e+07,-70.3101
1.568000000e+07,-73.1243
1.605333333e+07,-74.4519
1.642666667e+07,-67.2674
1.680000000e+07,-68.1938
1.717333333e+07,-63.4956
1.754666667e+07,-63.5278
1.792000000e+07,-55.9703
1.829333333e+07,-57.9875
1.866666667e+07,-63.7523
1.904000000e+07,-64.2434
1.941333333e+07,-67.7391
1.978666667e+07,-69.7894
2.016000000e+07,-68.3835
2.053333333e+07,-69.0995
2.090666667e+07,-68.5106
2.128000000e+07,-68.3764
2.165333333e+07,-65.4106
2.202666667e+07,-62.9762
2.240000000e+07,-67.9324
2.277333333e+07,-66.318
2.314666667e+07,-66.9937
2.352000000e+07,-65.8554
2.389333333e+07,-63.1761
2.426666667e+07,-61.5382
2.464000000e+07,-60.0471
2.501333333e+07,-54.5406
2.538666667e+07,-60.8039
2.576000000e+07,-63.8652
2.613333333e+07,-63.1401
2.650666667e+07,-66.6457
2.688000000e+07,-65.5194
2.725333333e+07,-60.0435
2.762666667e+07,-60.9059
2.800000000e+07,-70.7965
2.837333333e+07,-67.9438
2.874666667e+07,-74.5525
2.912000000e+07,-80.6947
2.949333333e+07,-75.6105
2.986666667e+07,-55.5157
3.024000000e+07,-56.8107
3.061333333e+07,-67.9628
3.098666667e+07,-76.1223
3.136000000e+07,-69.9429
3.173333333e+07,-70.4105
3.210666667e+07,-70.7544
3.248000000e+07,-61.0334
3.285333333e+07,-60.6614
3.322666667e+07,-77.9319
3.360000000e+07,-72.9133
3.397333333e+07,-70.1688
3.434666667e+07,-71.8141
3.472000000e+07,-69.3586
3.509333333e+07,-66.5471
3.546666667e+07,-60.9554
3.584000000e+07,-49.4189
3.621333333e+07,-50.1076
3.658666667e+07,-71.0971
3.696000000e+07,-70.878
3.733333333e+07,-72.4111
3.770666667e+07,-74.25
3.808000000e+07,-60.2301
3.845333333e+07,-65.0802
3.882666667e+07,-72.2429
3.920000000e+07,-75.1526
3.957333333e+07,-69.1897
3.994666667e+07,-69.6349
4.032000000e+07,-67.175
4.069333333e+07,-59.4788
4.106666667e+07,-61.0222
4.144000000e+07,-72.4692
4.181333333e+07,-53.1035
4.218666667e+07,-53.4779
4.256000000e+07,-73.9644
4.293333333e+07,-71.7934
4.330666667e+07,-60.6099
4.368000000e+07,-60.5409
4.405333333e+07,-66.5081
4.442666667e+07,-74.1571
4.480000000e+07,-74.5533
4.517333333e+07,-68.7648
4.554666667e+07,-71.0101
4.592000000e+07,-65.4747
4.629333333e+07,-58.5084
4.666666667e+07,-58.6713
4.704000000e+07,-71.8369
4.741333333e+07,-70.5209
4.778666667e+07,-37.5426
4.816000000e+07,-36.5991
4.853333333e+07,-59.6633
4.890666667e+07,-61.6321
4.928000000e+07,-60.1383
4.965333333e+07,-68.2243
5.002666667e+07,-73.1257
5.040000000e+07,-67.1845
5.077333333e+07,-67.6764
5.114666667e+07,-68.203
5.152000000e+07,-58.3509
5.189333333e+07,-54.0782
5.226666667e+07,-60.9502
5.264000000e+07,-70.2311
5.301333333e+07,-74.6292
5.338666667e+07,-70.2067
5.376000000e+07,-50.2522
5.413333333e+07,-48.7396
5.450666667e+07,-57.4952
5.488000000e+07,-61.0161
5.525333333e+07,-73.5566
5.562666667e+07,-73.1049
5.600000000e+07,-70.5477
5.637333333e+07,-74.4738
5.674666667e+07,-67.9115
5.712000000e+07,-52.6506
5.749333333e+07,-52.9373
5.786666667e+07,-73.9051
5.824000000e+07,-75.2674
5.861333333e+07,-72.447
5.898666667e+07,-84.8162
5.936000000e+07,-78.4076
5.973333333e+07,-34.8498
6.010666667e+07,-32.5142
6.048000000e+07,-51.1938
6.085333333e+07,-77.1706
6.122666667e+07,-71.4063
6.160000000e+07,-69.5805
6.197333333e+07,-77.6559
6.234666667e+07,-60.2337
6.272000000e+07,-52.7015
6.309333333e+07,-60.6739
6.346666667e+07,-69.0799
6.384000000e+07,-70.3387
6.421333333e+07,-70.3749
6.458666667e+07,-72.9068
6.496000000e+07,-71.237
6.533333333e+07,-54.9935
6.570666667e+07,-50.0116
6.608000000e+07,-45.5867
6.645333333e+07,-59.2114
6.682666667e+07,-66.4909
6.720000000e+07,-70.8721
6.757333333e+07,-73.0369
6.794666667e+07,-57.4345
6.832000000e+07,-57.9816
6.869333333e+07,-62.4117
6.906666667e+07,-67.1285
6.944000000e+07,-65.5147
6.981333333e+07,-67.2722
7.018666667e+07,-68.8504
7.056000000e+07,-55.8761
7.093333333e+07,-55.236
7.130666667e+07,-61.3695
7.168000000e+07,-46.6513
7.205333333e+07,-41.2506
7.242666667e+07,-54.2153
7.280000000e+07,-70.5618
7.317333333e+07,-62.5404
7.354666667e+07,-57.1622
7.392000000e+07,-58.6376
7.429333333e+07,-70.1772
7.466666667e+07,-68.9073
7.504000000e+07,-68.6468
7.541333333e+07,-65.6609
7.578666667e+07,-66.2104
7.616000000e+07,-56.7547
7.653333333e+07,-57.0623
7.690666667e+07,-62.749
7.728000000e+07,-70.083
7.765333333e+07,-57.5472
7.802666667e+07,-48.906
7.840000000e+07,-59.6548
7.877333333e+07,-59.562
7.914666667e+07,-55.0247
7.952000000e+07,-59.7335
7.989333333e+07,-72.7683
8.026666667e+07,-74.8272
8.064000000e+07,-70.1476
8.101333333e+07,-66.8189
8.138666667e+07,-65.0785
8.176000000e+07,-56.8518
8.213333333e+07,-57.929
8.250666667e+07,-72.196
8.288000000e+07,-66.5754
8.325333333e+07,-70.1725
8.362666667e+07,-48.4785
8.400000000e+07,-40.2312
8.437333333e+07,-49.3863
8.474666667e+07,-52.7885
8.512000000e+07,-70.6048
8.549333333e+07,-67.249
8.586666667e+07,-66.7438
8.624000000e+07,-65.821
8.661333333e+07,-68.8124
8.698666667e+07,-55.4345
8.736000000e+07,-52.173
8.773333333e+07,-65.6515
8.810666667e+07,-72.1695
8.848000000e+07,-65.8533
8.885333333e+07,-65.9319
8.922666667e+07,-73.5133
8.960000000e+07,-60.4048
8.997333333e+07,-47.225
9.034666667e+07,-53.3582
9.072000000e+07,-75.1046
9.109333333e+07,-67.1853
9.146666667e+07,-64.0735
9.184000000e+07,-69.2815
9.221333333e+07,-74.0581
9.258666667e+07,-53.6381
9.296000000e+07,-55.7733
9.333333333e+07,-66.8353
9.370666667e+07,-68.9495
9.408000000e+07,-68.4107
9.445333333e+07,-71.5722
9.482666667e+07,-67.3232
9.520000000e+07,-52.5646
9.557333333e+07,-51.9385
9.594666667e+07,-44.8475
9.632000000e+07,-48.8322
9.669333333e+07,-63.9593
9.706666667e+07,-64.0476
9.744000000e+07,-72.3596
9.781333333e+07,-59.2061
9.818666667e+07,-55.0185
9.856000000e+07,-60.9703
9.893333333e+07,-68.8726
9.930666667e+07,-64.3571
9.968000000e+07,-63.9571
1.000533333e+08,-68.2037
1.004266667e+08,-62.6092
1.008000000e+08,-52.6097
1.011733333e+08,-56.0083
1.015466667e+08,-65.934
1.019200000e+08,-55.1588
1.022933333e+08,-60.9613
1.026666667e+08,-63.8511
1.030400000e+08,-65.9732
1.034133333e+08,-54.3373
1.037866667e+08,-55.147
1.041600000e+08,-66.9643
1.045333333e+08,-64.7115
1.049066667e+08,-72.0536
1.052800000e+08,-67.2759
1.056533333e+08,-62.644
1.060266667e+08,-55.6331
1.064000000e+08,-52.8331
1.067733333e+08,-55.3502
1.071466667e+08,-64.2917
1.075200000e+08,-66.5132
1.078933333e+08,-42.5271
1.082666667e+08,-44.5188
1.086400000e+08,-60.5351
1.090133333e+08,-55.2148
1.093866667e+08,-55.4029
1.097600000e+08,-70.4911
1.101333333e+08,-75.7713
1.105066667e+08,-71.331
1.108800000e+08,-69.2672
1.112533333e+08,-67.7878
1.116266667e+08,-53.0325
1.120000000e+08,-50.9997
1.123733333e+08,-63.6237
1.127466667e+08,-67.4961
1.131200000e+08,-66.0275
1.134933333e+08,-70.068
1.138666667e+08,-56.6586
1.142400000e+08,-56.4661
1.146133333e+08,-53.4819
1.149866667e+08,-69.2556
1.153600000e+08,-71.7863
1.157333333e+08,-62.2498
1.161066667e+08,-62.2936
1.164800000e+08,-72.066
1.168533333e+08,-62.0228
1.172266667e+08,-49.3307
1.176000000e+08,-53.7116
1.179733333e+08,-79.3155
1.183466667e+08,-64.8944
1.187200000e+08,-63.6915
1.190933333e+08,-75.2865
1.194666667e+08,-62.7237
1.198400000e+08,-34.6319
1.202133333e+08,-35.323
1.205866667e+08,-63.65
1.209600000e+08,-64.6699
1.213333333e+08,-64.7868
1.217066667e+08,-68.9846
1.220800000e+08,-75.629
1.224533333e+08,-51.5592
1.228266667e+08,-49.5822
1.232000000e+08,-66.2576
1.235733333e+08,-70.7825
1.239466667e+08,-69.3249
1.243200000e+08,-71.6473
1.246933333e+08,-72.7477
1.250666667e+08,-58.5413
1.254400000e+08,-52.5121
1.258133333e+08,-54.6359
1.261866667e+08,-54.0375
1.265600000e+08,-75.902
1.269333333e+08,-65.9527
1.273066667e+08,-66.0624
1.276800000e+08,-63.791
1.280533333e+08,-50.3994
1.284266667e+08,-53.4224
1.288000000e+08,-64.5603
1.291733333e+08,-71.6704
1.295466667e+08,-64.1801
1.299200000e+08,-63.2697
1.302933333e+08,-62.7015
1.306666667e+08,-52.4097
1.310400000e+08,-53.9239
1.314133333e+08,-63.0143
1.317866667e+08,-44.6141
1.321600000e+08,-43.8581
1.325333333e+08,-67.8345
1.329066667e+08,-66.0059
1.332800000e+08,-52.5866
1.336533333e+08,-51.7868
1.340266667e+08,-55.1472
1.344000000e+08,-64.3128
1.347733333e+08,-69.7004
1.351466667e+08,-62.2365
1.355200000e+08,-63.5085
1.358933333e+08,-58.3967
1.362666667e+08,-54.2787
1.366400000e+08,-55.7031
1.370133333e+08,-65.8724
1.373866667e+08,-66.0983
1.377600000e+08,-63.1614
1.381333333e+08,-66.0836
1.385066667e+08,-60.7312
1.388800000e+08,-54.023
1.392533333e+08,-50.4225
1.396266667e+08,-58.89
1.400000000e+08,-65.8671
1.403733333e+08,-65.3456
1.407466667e+08,-65.9695
1.411200000e+08,-63.7883
1.414933333e+08,-58.8879
1.418666667e+08,-54.0135
1.422400000e+08,-60.8345
1.426133333e+08,-69.3659
1.429866667e+08,-67.0229
1.433600000e+08,-64.7059
1.437333333e+08,-47.6234
1.441066667e+08,-45.476
1.444800000e+08,-49.9055
1.448533333e+08,-52.1445
1.452266667e+08,-71.1416
1.456000000e+08,-72.1464
1.459733333e+08,-64.7136
1.463466667e+08,-64.8417
1.467200000e+08,-71.2524
1.470933333e+08,-52.0751
1.474666667e+08,-51.7222
1.478400000e+08,-74.1448
1.482133333e+08,-69.3805
1.485866667e+08,-65.1345
1.489600000e+08,-69.2177
1.493333333e+08,-68.9942
1.497066667e+08,-52.0054
1.500800000e+08,-48.9494
1.504533333e+08,-63.0246
1.508266667e+08,-74.9885
1.512000000e+08,-67.6525
1.515733333e+08,-70.4208
1.519466667e+08,-73.6567
1.523200000e+08,-65.77
1.526933333e+08,-52.7923
1.530666667e+08,-59.9099
1.534400000e+08,-66.9154
1.538133333e+08,-64.3031
1.541866667e+08,-65.0879
1.545600000e+08,-69.4473
1.549333333e+08,-65.1754
1.553066667e+08,-49.35
1.556800000e+08,-48.4996
1.560533333e+08,-41.5766
1.564266667e+08,-52.992
1.568000000e+08,-61.8793
1.571733333e+08,-71.7905
1.575466667e+08,-65.5997
1.579200000e+08,-53.2638
1.582933333e+08,-53.5948
1.586666667e+08,-67.1055
1.590400000e+08,-68.1632
1.594133333e+08,-61.4578
1.597866667e+08,-68.6801
1.601600000e+08,-67.7527
1.605333333e+08,-51.5586
1.609066667e+08,-49.4258
1.612800000e+08,-53.3222
1.616533333e+08,-61.2555
1.620266667e+08,-58.6611
1.624000000e+08,-63.3219
1.627733333e+08,-65.7214
1.631466667e+08,-61.851
1.635200000e+08,-54.439
1.638933333e+08,-54.0869
1.642666667e+08,-69.2249
1.646400000e+08,-71.9491
1.650133333e+08,-65.6813
1.653866667e+08,-61.9787
1.657600000e+08,-61.258
1.661333333e+08,-50.6381
1.665066667e+08,-49.6372
1.668800000e+08,-56.7087
1.672533333e+08,-62.6081
1.676266667e+08,-55.7116
1.680000000e+08,-46.2323
1.683733333e+08,-54.7395
1.687466667e+08,-56.5197
1.691200000e+08,-53.7074
1.694933333e+08,-57.417
1.698666667e+08,-65.1653
1.702400000e+08,-64.7204
1.706133333e+08,-64.7743
1.709866667e+08,-64.8101
1.713600000e+08,-57.736
1.717333333e+08,-47.7047
1.721066667e+08,-48.3378
1.724800000e+08,-60.3732
1.728533333e+08,-68.4553
1.732266667e+08,-67.0671
1.736000000e+08,-66.3805
1.739733333e+08,-63.7464
1.743466667e+08,-52.6123
1.747200000e+08,-51.1431
1.750933333e+08,-70.455
1.754666667e+08,-71.4395
1.758400000e+08,-64.0954
1.762133333e+08,-62.4833
1.765866667e+08,-64.6799
1.769600000e+08,-51.8172
1.773333333e+08,-46.2991
1.777066667e+08,-57.1883
1.780800000e+08,-70.7052
1.784533333e+08,-66.0894
1.788266667e+08,-69.299
1.792000000e+08,-69.0969
1.795733333e+08,-56.1756
1.799466667e+08,-41.2566
1.803200000e+08,-46.4793
1.806933333e+08,-70.9566
1.810666667e+08,-71.2961
1.814400000e+08,-70.4336
1.818133333e+08,-77.8818
1.821866667e+08,-67.3238
1.825600000e+08,-46.6613
1.829333333e+08,-47.7838
1.833066667e+08,-66.3853
1.836800000e+08,-66.9138
1.840533333e+08,-61.1941
1.844266667e+08,-63.9711
1.848000000e+08,-66.9556
1.851733333e+08,-53.943
1.855466667e+08,-53.0682
1.859200000e+08,-64.4843
1.862933333e+08,-67.9756
1.866666667e+08,-62.5443
1.870400000e+08,-64.4541
1.874133333e+08,-63.8687
1.877866667e+08,-51.0116
1.881600000e+08,-47.2661
1.885333333e+08,-54.7914
1.889066667e+08,-63.6063
1.892800000e+08,-63.9758
1.896533333e+08,-63.661
1.900266667e+08,-61.0674
1.904000000e+08,-63.656
1.907733333e+08,-52.2719
1.911466667e+08,-55.4145
1.915200000e+08,-62.002
1.918933333e+08,-46.1411
1.922666667e+08,-46.6997
1.926400000e+08,-62.4426
1.930133333e+08,-62.4922
1.933866667e+08,-49.0251
1.937600000e+08,-50.0393
1.941333333e+08,-54.3093
1.945066667e+08,-63.9442
1.948800000e+08,-62.5748
1.952533333e+08,-64.2108
1.956266667e+08,-67.8892
1.960000000e+08,-56.6961
1.963733333e+08,-55.6643
1.967466667e+08,-59.1357
1.971200000e+08,-68.5976
1.974933333e+08,-64.0419
1.978666667e+08,-58.7716
1.982400000e+08,-60.124
1.986133333e+08,-55.6486
1.989866667e+08,-49.0038
1.993600000e+08,-48.4344
1.997333333e+08,-61.0425
2.001066667e+08,-64.5019
2.004800000e+08,-63.0827
2.008533333e+08,-68.2038
2.012266667e+08,-63.1232
2.016000000e+08,-55.9957
2.019733333e+08,-53.3089
2.023466667e+08,-62.243
2.027200000e+08,-67.9322
2.030933333e+08,-67.2355
2.034666667e+08,-65.1691
2.038400000e+08,-43.0019
2.042133333e+08,-43.3316
2.045866667e+08,-47.2911
2.049600000e+08,-55.9372
2.053333333e+08,-71.8374
2.057066667e+08,-64.4166
2.060800000e+08,-65.9014
2.064533333e+08,-70.5354
2.068266667e+08,-70.0844
2.072000000e+08,-53.4432
2.075733333e+08,-56.4478
2.079466667e+08,-70.4642
2.083200000e+08,-63.1486
2.086933333e+08,-68.3534
2.090666667e+08,-73.7072
2.094400000e+08,-73.5358
2.098133333e+08,-45.2746
2.101866667e+08,-45.418
2.105600000e+08,-65.7387
2.109333333e+08,-63.6896
2.113066667e+08,-70.0729
2.116800000e+08,-67.2244
2.120533333e+08,-67.227
2.124266667e+08,-58.0647
2.128000000e+08,-54.3072
2.131733333e+08,-67.6872
2.135466667e+08,-70.4254
2.139200000e+08,-66.6009
2.142933333e+08,-63.9564
2.146666667e+08,-64.7592
2.150400000e+08,-56.738
2.154133333e+08,-48.148
2.157866667e+08,-46.6149
2.161600000e+08,-46.0578
2.165333333e+08,-70.5934
2.169066667e+08,-68.0372
2.172800000e+08,-61.387
2.176533333e+08,-63.306
2.180266667e+08,-52.2545
2.184000000e+08,-55.3496
2.187733333e+08,-62.6426
2.191466667e+08,-71.2235
2.195200000e+08,-62.1657
2.198933333e+08,-65.2374
2.202666667e+08,-63.2978
2.206400000e+08,-47.9492
2.210133333e+08,-48.4977
2.213866667e+08,-55.6067
2.217600000e+08,-63.0219
2.221333333e+08,-63.9354
2.225066667e+08,-62.7205
2.228800000e+08,-63.2118
2.232533333e+08,-58.8396
2.236266667e+08,-56.4243
2.240000000e+08,-57.3193
2.243733333e+08,-70.2969
2.247466667e+08,-71.5478
2.251200000e+08,-66.5207
2.254933333e+08,-62.656
2.258666667e+08,-57.7129
2.262400000e+08,-50.6097
2.266133333e+08,-49.5561
2.269866667e+08,-60.7202
2.273600000e+08,-62.2631
2.277333333e+08,-45.6874
2.281066667e+08,-43.0568
2.284800000e+08,-60.5866
2.288533333e+08,-58.1639
2.292266667e+08,-56.5106
2.296000000e+08,-63.9631
2.299733333e+08,-66.8495
2.303466667e+08,-63.6881
2.307200000e+08,-64.674
2.310933333e+08,-63.0149
2.314666667e+08,-54.7009
2.318400000e+08,-47.2125
2.322133333e+08,-51.6214
2.325866667e+08,-64.6477
2.329600000e+08,-71.5682
2.333333333e+08,-70.7279
2.337066667e+08,-63.8176
2.340800000e+08,-62.6705
2.344533333e+08,-53.4558
2.348266667e+08,-55.0367
2.352000000e+08,-70.7744
2.355733333e+08,-72.5945
2.359466667e+08,-71.3301
2.363200000e+08,-70.1888
2.366933333e+08,-67.4705
2.370666667e+08,-48.5196
2.374400000e+08,-47.0644
2.378133333e+08,-69.9078
2.381866667e+08,-71.2196
2.385600000e+08,-68.6409
2.389333333e+08,-82.185
2.393066667e+08,-73.5855
2.396800000e+08,-51.1085
2.400533333e+08,-48.0454
2.404266667e+08,-52.4535
2.408000000e+08,-73.6301
2.411733333e+08,-73.0623
2.415466667e+08,-69.0487
2.419200000e+08,-67.56
2.422933333e+08,-59.0363
2.426666667e+08,-47.1557
2.430400000e+08,-53.5571
2.434133333e+08,-66.6304
2.437866667e+08,-69.6271
2.441600000e+08,-76.4392
2.445333333e+08,-69.7198
2.449066667e+08,-68.432
2.452800000e+08,-53.516
2.456533333e+08,-55.6033
2.460266667e+08,-64.0401
2.464000000e+08,-74.196
2.467733333e+08,-70.0918
2.471466667e+08,-65.4116
2.475200000e+08,-62.6991
2.478933333e+08,-48.1886
2.482666667e+08,-47.8099
2.486400000e+08,-55.7254
2.490133333e+08,-68.9709
2.493866667e+08,-70.0066
2.497600000e+08,-64.5503
2.501333333e+08,-67.8148
2.505066667e+08,-58.31
2.508800000e+08,-53.7817
2.512533333e+08,-58.2405
2.516266667e+08,-51.514
2.520000000e+08,-43.0153
2.523733333e+08,-51.0789
2.527466667e+08,-66.4876
2.531200000e+08,-59.0485
2.534933333e+08,-49.6935
2.538666667e+08,-50.3421
2.542400000e+08,-62.1904
2.546133333e+08,-64.4009
2.549866667e+08,-64.9721
2.553600000e+08,-65.053
2.557333333e+08,-68.1985
2.561066667e+08,-56.2089
2.564800000e+08,-54.7774
2.568533333e+08,-64.3638
2.572266667e+08,-64.8088
2.576000000e+08,-63.749
2.579733333e+08,-66.2988
2.583466667e+08,-60.1683
2.587200000e+08,-52.4972
2.590933333e+08,-49.2403
2.594666667e+08,-51.6525
2.598400000e+08,-66.9981
2.602133333e+08,-68.2523
2.605866667e+08,-68.577
2.609600000e+08,-69.3383
2.613333333e+08,-61.3683
2.617066667e+08,-54.9539
2.620800000e+08,-55.431
2.624533333e+08,-65.7322
2.628266667e+08,-68.5055
2.632000000e+08,-67.3466
2.635733333e+08,-60.9292
2.639466667e+08,-47.0389
2.643200000e+08,-50.111
2.646933333e+08,-48.1942
2.650666667e+08,-66.1522
2.654400000e+08,-69.1029
2.658133333e+08,-67.9144
2.661866667e+08,-69.2941
2.665600000e+08,-70.1255
2.669333333e+08,-60.7836
2.673066667e+08,-54.0133
2.676800000e+08,-61.4762
2.680533333e+08,-67.0407
2.684266667e+08,-65.7545
2.688000000e+08,-65.5475
2.691733333e+08,-74.5412
2.695466667e+08,-65.0171
2.699200000e+08,-51.8088
2.702933333e+08,-55.2413
2.706666667e+08,-70.896
2.710400000e+08,-71.6638
2.714133333e+08,-66.7166
2.717866667e+08,-67.1813
2.721600000e+08,-75.9318
2.725333333e+08,-53.7452
2.729066667e+08,-54.1478
2.732800000e+08,-73.0061
2.736533333e+08,-66.6992
2.740266667e+08,-66.0125
2.744000000e+08,-70.6902
2.747733333e+08,-70.2467
2.751466667e+08,-49.7574
2.755200000e+08,-48.2404
2.758933333e+08,-42.6782
2.762666667e+08,-44.7924
2.766400000e+08,-62.6338
2.770133333e+08,-70.3812
2.773866667e+08,-68.7303
2.777600000e+08,-64.2931
2.781333333e+08,-55.4946
2.785066667e+08,-61.5148
2.788800000e+08,-71.5568
2.792533333e+08,-68.423
2.796266667e+08,-69.5906
2.800000000e+08,-65.4616

