Model,MDO3104
Firmware Version,1.30

Waveform Type,RF_FD
Point Format,Y
Horizontal Units,Hz
Horizontal Scale,2.8e+07
,
Sample Interval,373333
Record Length,751
Gating,0.133155792277% to 100.0%
Probe Attenuation,1
Vertical Units,dBm
Vertical Offset,0
Vertical Scale,10
Vertical Position,0
Center Frequency,1.4e+08
Span,2.8e+08
Reference Level,-15
Label,
FREQUENCY,FD NORM
0.000000000e+00,-69.352
3.733333333e+05,-81.3821
7.466666667e+05,-78.0885
1.120000000e+06,-77.667
1.493333333e+06,-66.7287
1.866666667e+06,-65.6805
2.240000000e+06,-66.867
2.613333333e+06,-65.3806
2.986666667e+06,-66.7452
3.360000000e+06,-60.0186
3.733333333e+06,-61.0258
4.106666667e+06,-65.1544
4.480000000e+06,-63.4767
4.853333333e+06,-68.6875
5.226666667e+06,-66.2346
5.600000000e+06,-68.5754
5.973333333e+06,-68.1017
6.346666667e+06,-72.2607
6.720000000e+06,-69.5105
7.093333333e+06,-74.2095
7.466666667e+06,-74.89
7.840000000e+06,-68.6162
8.213333333e+06,-64.7746
8.586666667e+06,-73.9201
8.960000000e+06,-77.8641
9.333333333e+06,-71.0338
9.706666667e+06,-65.9301
1.008000000e+07,-69.5216
1.045333333e+07,-68.1821
1.082666667e+07,-69.0153
1.120000000e+07,-65.3761
1.157333333e+07,-65.6958
1.194666667e+07,-67.9044
1.232000000e+07,-69.6782
1.269333333e+07,-69.3165
1.306666667e+07,-67.0941
1.344000000e+07,-63.9699
1.381333333e+07,-66.0905
1.418666667e+07,-68.6504
1.456000000e+07,-66.055
1.493333333e+07,-70.3924
1.530666667e+07,-74.1427
1.568000000e+07,-71.2158
1.605333333e+07,-63.1061
1.642666667e+07,-64.6196
1.680000000e+07,-65.6823
1.717333333e+07,-66.8053
1.754666667e+07,-67.8293
1.792000000e+07,-67.8131
1.829333333e+07,-65.6834
1.866666667e+07,-69.7443
1.904000000e+07,-69.8824
1.941333333e+07,-72.9005
1.978666667e+07,-68.7507
2.016000000e+07,-71.3642
2.053333333e+07,-71.4092
2.090666667e+07,-71.3238
2.128000000e+07,-67.6402
2.165333333e+07,-66.8908
2.202666667e+07,-63.6619
2.240000000e+07,-70.593
2.277333333e+07,-67.2994
2.314666667e+07,-67.9469
2.352000000e+07,-63.0206
2.389333333e+07,-66.7889
2.426666667e+07,-75.4382
2.464000000e+07,-65.6687
2.501333333e+07,-53.2658
2.538666667e+07,-62.0774
2.576000000e+07,-66.6775
2.613333333e+07,-68.5164
2.650666667e+07,-71.8038
2.688000000e+07,-68.2689
2.725333333e+07,-62.7106
2.762666667e+07,-68.2533
2.800000000e+07,-69.8282
2.837333333e+07,-73.1966
2.874666667e+07,-70.1155
2.912000000e+07,-70.6611
2.949333333e+07,-72.3822
2.986666667e+07,-58.3885
3.024000000e+07,-60.5064
3.061333333e+07,-70.5268
3.098666667e+07,-82.8002
3.136000000e+07,-72.6535
3.173333333e+07,-80.9287
3.210666667e+07,-78.3476
3.248000000e+07,-60.941
3.285333333e+07,-60.4196
3.322666667e+07,-74.2549
3.360000000e+07,-75.4788
3.397333333e+07,-74.0631
3.434666667e+07,-74.186
3.472000000e+07,-75.2623
3.509333333e+07,-63.0699
3.546666667e+07,-58.1823
3.584000000e+07,-61.8038
3.621333333e+07,-61.6184
3.658666667e+07,-71.8941
3.696000000e+07,-78.0132
3.733333333e+07,-77.6364
3.770666667e+07,-73.6653
3.808000000e+07,-58.5824
3.845333333e+07,-61.057
3.882666667e+07,-72.7867
3.920000000e+07,-76.8091
3.957333333e+07,-75.2766
3.994666667e+07,-74.2995
4.032000000e+07,-70.8932
4.069333333e+07,-58.6565
4.106666667e+07,-59.4065
4.144000000e+07,-67.8355
4.181333333e+07,-71.9203
4.218666667e+07,-74.5991
4.256000000e+07,-72.6113
4.293333333e+07,-72.3192
4.330666667e+07,-61.9564
4.368000000e+07,-59.2493
4.405333333e+07,-66.4137
4.442666667e+07,-72.1783
4.480000000e+07,-77.0641
4.517333333e+07,-74.5475
4.554666667e+07,-74.8823
4.592000000e+07,-62.3547
4.629333333e+07,-55.4402
4.666666667e+07,-56.1755
4.704000000e+07,-71.4808
4.741333333e+07,-71.6969
4.778666667e+07,-67.5396
4.816000000e+07,-65.6794
4.853333333e+07,-75.0996
4.890666667e+07,-60.0281
4.928000000e+07,-59.2838
4.965333333e+07,-72.7561
5.002666667e+07,-72.4385
5.040000000e+07,-73.9013
5.077333333e+07,-75.1433
5.114666667e+07,-73.0201
5.152000000e+07,-60.0403
5.189333333e+07,-55.2085
5.226666667e+07,-66.7254
5.264000000e+07,-73.4805
5.301333333e+07,-74.1463
5.338666667e+07,-72.5187
5.376000000e+07,-70.7003
5.413333333e+07,-65.2745
5.450666667e+07,-56.5085
5.488000000e+07,-60.2304
5.525333333e+07,-76.8065
5.562666667e+07,-75.5649
5.600000000e+07,-78.8235
5.637333333e+07,-76.979
5.674666667e+07,-73.0943
5.712000000e+07,-53.7213
5.749333333e+07,-53.9886
5.786666667e+07,-73.9364
5.824000000e+07,-74.6395
5.861333333e+07,-74.6583
5.898666667e+07,-75.5263
5.936000000e+07,-70.6303
5.973333333e+07,-36.9352
6.010666667e+07,-34.6007
6.048000000e+07,-53.3207
6.085333333e+07,-79.1452
6.122666667e+07,-75.4325
6.160000000e+07,-77.1888
6.197333333e+07,-76.5614
6.234666667e+07,-58.369
6.272000000e+07,-50.9695
6.309333333e+07,-57.1656
6.346666667e+07,-66.8464
6.384000000e+07,-67.5226
6.421333333e+07,-73.102
6.458666667e+07,-76.6861
6.496000000e+07,-73.0852
6.533333333e+07,-55.223
6.570666667e+07,-58.8604
6.608000000e+07,-75.111
6.645333333e+07,-76.6651
6.682666667e+07,-74.3807
6.720000000e+07,-68.6245
6.757333333e+07,-68.4189
6.794666667e+07,-54.6765
6.832000000e+07,-55.4169
6.869333333e+07,-66.3465
6.906666667e+07,-67.7383
6.944000000e+07,-73.1316
6.981333333e+07,-66.537
7.018666667e+07,-75.0802
7.056000000e+07,-56.8921
7.093333333e+07,-54.8195
7.130666667e+07,-61.6285
7.168000000e+07,-71.5794
7.205333333e+07,-59.988
7.242666667e+07,-68.4452
7.280000000e+07,-67.1409
7.317333333e+07,-65.6045
7.354666667e+07,-55.9356
7.392000000e+07,-56.1932
7.429333333e+07,-63.6755
7.466666667e+07,-67.7737
7.504000000e+07,-64.662
7.541333333e+07,-67.6542
7.578666667e+07,-69.6115
7.616000000e+07,-57.4114
7.653333333e+07,-57.2059
7.690666667e+07,-69.1793
7.728000000e+07,-65.8921
7.765333333e+07,-71.8404
7.802666667e+07,-68.9829
7.840000000e+07,-67.5809
7.877333333e+07,-58.9139
7.914666667e+07,-55.1283
7.952000000e+07,-62.7272
7.989333333e+07,-74.9521
8.026666667e+07,-72.1534
8.064000000e+07,-68.4568
8.101333333e+07,-72.4722
8.138666667e+07,-61.3213
8.176000000e+07,-56.5775
8.213333333e+07,-58.0263
8.250666667e+07,-70.426
8.288000000e+07,-72.1789
8.325333333e+07,-72.1932
8.362666667e+07,-59.3785
8.400000000e+07,-52.667
8.437333333e+07,-54.1288
8.474666667e+07,-53.3067
8.512000000e+07,-72.388
8.549333333e+07,-71.1573
8.586666667e+07,-72.9228
8.624000000e+07,-74.8585
8.661333333e+07,-66.7061
8.698666667e+07,-58.1147
8.736000000e+07,-54.107
8.773333333e+07,-67.7078
8.810666667e+07,-67.1011
8.848000000e+07,-71.3002
8.885333333e+07,-71.3073
8.922666667e+07,-70.2895
8.960000000e+07,-58.7214
8.997333333e+07,-48.5604
9.034666667e+07,-54.963
9.072000000e+07,-73.6271
9.109333333e+07,-76.4625
9.146666667e+07,-69.394
9.184000000e+07,-69.1225
9.221333333e+07,-73.7927
9.258666667e+07,-54.1041
9.296000000e+07,-55.7671
9.333333333e+07,-64.3662
9.370666667e+07,-71.7451
9.408000000e+07,-72.1155
9.445333333e+07,-68.2187
9.482666667e+07,-67.2057
9.520000000e+07,-52.2091
9.557333333e+07,-51.3698
9.594666667e+07,-54.1447
9.632000000e+07,-54.9269
9.669333333e+07,-73.3954
9.706666667e+07,-72.361
9.744000000e+07,-71.4625
9.781333333e+07,-60.1451
9.818666667e+07,-54.9018
9.856000000e+07,-60.8756
9.893333333e+07,-72.1531
9.930666667e+07,-67.9294
9.968000000e+07,-69.2484
1.000533333e+08,-66.2144
1.004266667e+08,-63.0194
1.008000000e+08,-52.2697
1.011733333e+08,-54.8093
1.015466667e+08,-68.3183
1.019200000e+08,-65.8288
1.022933333e+08,-66.7489
1.026666667e+08,-68.1441
1.030400000e+08,-68.7437
1.034133333e+08,-55.087
1.037866667e+08,-55.5261
1.041600000e+08,-70.1171
1.045333333e+08,-69.2078
1.049066667e+08,-70.2696
1.052800000e+08,-68.1733
1.056533333e+08,-65.3662
1.060266667e+08,-54.6133
1.064000000e+08,-52.7338
1.067733333e+08,-57.8096
1.071466667e+08,-66.1364
1.075200000e+08,-68.0871
1.078933333e+08,-52.2581
1.082666667e+08,-54.5701
1.086400000e+08,-63.2699
1.090133333e+08,-56.6317
1.093866667e+08,-57.4765
1.097600000e+08,-65.7625
1.101333333e+08,-66.4504
1.105066667e+08,-72.8186
1.108800000e+08,-63.8035
1.112533333e+08,-66.2426
1.116266667e+08,-52.6677
1.120000000e+08,-51.2191
1.123733333e+08,-65.6142
1.127466667e+08,-66.1777
1.131200000e+08,-69.2116
1.134933333e+08,-67.4053
1.138666667e+08,-73.5195
1.142400000e+08,-56.2793
1.146133333e+08,-52.8463
1.149866667e+08,-64.7997
1.153600000e+08,-70.947
1.157333333e+08,-75.8084
1.161066667e+08,-75.4418
1.164800000e+08,-73.6008
1.168533333e+08,-63.9474
1.172266667e+08,-50.9737
1.176000000e+08,-55.6931
1.179733333e+08,-65.0235
1.183466667e+08,-71.7701
1.187200000e+08,-69.6905
1.190933333e+08,-68.1485
1.194666667e+08,-64.5577
1.198400000e+08,-36.2628
1.202133333e+08,-36.9692
1.205866667e+08,-70.3293
1.209600000e+08,-74.9288
1.213333333e+08,-75.5506
1.217066667e+08,-77.843
1.220800000e+08,-74.9178
1.224533333e+08,-51.1487
1.228266667e+08,-48.998
1.232000000e+08,-59.725
1.235733333e+08,-72.444
1.239466667e+08,-68.9201
1.243200000e+08,-76.5462
1.246933333e+08,-66.9267
1.250666667e+08,-60.4822
1.254400000e+08,-51.9683
1.258133333e+08,-59.8104
1.261866667e+08,-74.3037
1.265600000e+08,-69.6232
1.269333333e+08,-71.8885
1.273066667e+08,-71.8197
1.276800000e+08,-68.3178
1.280533333e+08,-49.6151
1.284266667e+08,-51.9635
1.288000000e+08,-63.62
1.291733333e+08,-69.3228
1.295466667e+08,-66.0726
1.299200000e+08,-67.1199
1.302933333e+08,-63.8092
1.306666667e+08,-51.7813
1.310400000e+08,-52.3765
1.314133333e+08,-64.7331
1.317866667e+08,-52.1435
1.321600000e+08,-51.38
1.325333333e+08,-63.7588
1.329066667e+08,-69.0662
1.332800000e+08,-53.075
1.336533333e+08,-50.9641
1.340266667e+08,-54.0883
1.344000000e+08,-63.7073
1.347733333e+08,-67.5721
1.351466667e+08,-64.3
1.355200000e+08,-68.9659
1.358933333e+08,-58.6735
1.362666667e+08,-53.4648
1.366400000e+08,-53.9816
1.370133333e+08,-63.0205
1.373866667e+08,-68.5618
1.377600000e+08,-69.7691
1.381333333e+08,-70.0009
1.385066667e+08,-67.2336
1.388800000e+08,-51.8016
1.392533333e+08,-50.6235
1.396266667e+08,-62.7498
1.400000000e+08,-69.4035
1.403733333e+08,-69.6189
1.407466667e+08,-65.4941
1.411200000e+08,-67.46
1.414933333e+08,-56.9409
1.418666667e+08,-53.3593
1.422400000e+08,-64.9909
1.426133333e+08,-72.8422
1.429866667e+08,-71.3797
1.433600000e+08,-70.6405
1.437333333e+08,-67.372
1.441066667e+08,-56.6514
1.444800000e+08,-49.0942
1.448533333e+08,-51.5688
1.452266667e+08,-64.8385
1.456000000e+08,-65.8233
1.459733333e+08,-74.7446
1.463466667e+08,-69.117
1.467200000e+08,-72.4955
1.470933333e+08,-53.5971
1.474666667e+08,-52.8493
1.478400000e+08,-68.7961
1.482133333e+08,-71.7462
1.485866667e+08,-70.2581
1.489600000e+08,-72.8655
1.493333333e+08,-73.1365
1.497066667e+08,-52.207
1.500800000e+08,-48.7471
1.504533333e+08,-64.857
1.508266667e+08,-67.5654
1.512000000e+08,-67.5383
1.515733333e+08,-69.5585
1.519466667e+08,-73.7055
1.523200000e+08,-64.5242
1.526933333e+08,-51.9684
1.530666667e+08,-58.766
1.534400000e+08,-77.9785
1.538133333e+08,-75.0908
1.541866667e+08,-74.0085
1.545600000e+08,-69.1626
1.549333333e+08,-65.4071
1.553066667e+08,-48.7124
1.556800000e+08,-51.1267
1.560533333e+08,-50.7344
1.564266667e+08,-64.3092
1.568000000e+08,-64.9507
1.571733333e+08,-67.2376
1.575466667e+08,-62.4146
1.579200000e+08,-52.6509
1.582933333e+08,-52.4996
1.586666667e+08,-61.4256
1.590400000e+08,-70.305
1.594133333e+08,-69.1641
1.597866667e+08,-69.8157
1.601600000e+08,-66.1463
1.605333333e+08,-53.4391
1.609066667e+08,-49.3316
1.612800000e+08,-52.8608
1.616533333e+08,-62.1156
1.620266667e+08,-70.0898
1.624000000e+08,-67.0136
1.627733333e+08,-69.5818
1.631466667e+08,-62.7383
1.635200000e+08,-53.5053
1.638933333e+08,-53.9466
1.642666667e+08,-67.6206
1.646400000e+08,-67.6158
1.650133333e+08,-63.58
1.653866667e+08,-65.1161
1.657600000e+08,-65.4985
1.661333333e+08,-50.1196
1.665066667e+08,-49.5798
1.668800000e+08,-65.6791
1.672533333e+08,-64.6862
1.676266667e+08,-69.2138
1.680000000e+08,-58.8172
1.683733333e+08,-60.1315
1.687466667e+08,-54.2508
1.691200000e+08,-52.2673
1.694933333e+08,-58.669
1.698666667e+08,-64.8945
1.702400000e+08,-68.331
1.706133333e+08,-74.5858
1.709866667e+08,-66.8632
1.713600000e+08,-57.8389
1.717333333e+08,-48.0543
1.721066667e+08,-49.2363
1.724800000e+08,-62.0361
1.728533333e+08,-67.9621
1.732266667e+08,-66.8218
1.736000000e+08,-62.9191
1.739733333e+08,-75.548
1.743466667e+08,-54.5555
1.747200000e+08,-52.8591
1.750933333e+08,-67.6382
1.754666667e+08,-68.529
1.758400000e+08,-66.259
1.762133333e+08,-63.4543
1.765866667e+08,-66.9443
1.769600000e+08,-53.3799
1.773333333e+08,-47.7087
1.777066667e+08,-59.8783
1.780800000e+08,-66.7997
1.784533333e+08,-71.0885
1.788266667e+08,-74.1803
1.792000000e+08,-70.5966
1.795733333e+08,-53.2575
1.799466667e+08,-40.5472
1.803200000e+08,-45.2672
1.806933333e+08,-75.0055
1.810666667e+08,-69.4719
1.814400000e+08,-67.3058
1.818133333e+08,-71.5243
1.821866667e+08,-65.1758
1.825600000e+08,-47.9533
1.829333333e+08,-49.0268
1.833066667e+08,-71.0002
1.836800000e+08,-72.1833
1.840533333e+08,-72.559
1.844266667e+08,-69.6229
1.848000000e+08,-66.9449
1.851733333e+08,-54.3273
1.855466667e+08,-52.7986
1.859200000e+08,-61.4085
1.862933333e+08,-73.3031
1.866666667e+08,-66.9738
1.870400000e+08,-70.5063
1.874133333e+08,-67.2728
1.877866667e+08,-52.7441
1.881600000e+08,-47.4968
1.885333333e+08,-52.5601
1.889066667e+08,-68.2231
1.892800000e+08,-66.9576
1.896533333e+08,-68.5573
1.900266667e+08,-70.0024
1.904000000e+08,-67.0332
1.907733333e+08,-52.7176
1.911466667e+08,-54.7438
1.915200000e+08,-69.5858
1.918933333e+08,-54.155
1.922666667e+08,-52.3066
1.926400000e+08,-68.3892
1.930133333e+08,-60.3538
1.933866667e+08,-48.7074
1.937600000e+08,-48.362
1.941333333e+08,-54.8531
1.945066667e+08,-70.808
1.948800000e+08,-68.1751
1.952533333e+08,-62.7201
1.956266667e+08,-70.6959
1.960000000e+08,-54.6875
1.963733333e+08,-53.5778
1.967466667e+08,-57.7562
1.971200000e+08,-68.8963
1.974933333e+08,-68.8807
1.978666667e+08,-67.1255
1.982400000e+08,-64.2106
1.986133333e+08,-55.8588
1.989866667e+08,-48.3271
1.993600000e+08,-48.5583
1.997333333e+08,-61.0832
2.001066667e+08,-72.2192
2.004800000e+08,-63.2364
2.008533333e+08,-67.4288
2.012266667e+08,-67.1787
2.016000000e+08,-54.7898
2.019733333e+08,-53.4462
2.023466667e+08,-67.6012
2.027200000e+08,-67.9587
2.030933333e+08,-65.6223
2.034666667e+08,-66.044
2.038400000e+08,-49.4427
2.042133333e+08,-51.2631
2.045866667e+08,-46.9422
2.049600000e+08,-56.7519
2.053333333e+08,-78.309
2.057066667e+08,-67.1471
2.060800000e+08,-66.562
2.064533333e+08,-73.2249
2.068266667e+08,-60.4522
2.072000000e+08,-52.9764
2.075733333e+08,-57.5582
2.079466667e+08,-67.3236
2.083200000e+08,-67.0009
2.086933333e+08,-68.0364
2.090666667e+08,-69.6248
2.094400000e+08,-73.1838
2.098133333e+08,-47.3054
2.101866667e+08,-47.1604
2.105600000e+08,-65.1239
2.109333333e+08,-65.7248
2.113066667e+08,-67.6951
2.116800000e+08,-67.5962
2.120533333e+08,-66.5791
2.124266667e+08,-57.9278
2.128000000e+08,-55.2882
2.131733333e+08,-66.787
2.135466667e+08,-76.1983
2.139200000e+08,-78.0999
2.142933333e+08,-67.7601
2.146666667e+08,-69.1826
2.150400000e+08,-59.2785
2.154133333e+08,-47.626
2.157866667e+08,-52.3694
2.161600000e+08,-62.1339
2.165333333e+08,-64.3073
2.169066667e+08,-64.2186
2.172800000e+08,-67.1528
2.176533333e+08,-66.087
2.180266667e+08,-54.153
2.184000000e+08,-56.7308
2.187733333e+08,-71.3642
2.191466667e+08,-73.1912
2.195200000e+08,-70.2485
2.198933333e+08,-65.6122
2.202666667e+08,-58.8809
2.206400000e+08,-48.6064
2.210133333e+08,-48.2005
2.213866667e+08,-55.8265
2.217600000e+08,-66.9797
2.221333333e+08,-63.6073
2.225066667e+08,-70.3123
2.228800000e+08,-64.8634
2.232533333e+08,-60.081
2.236266667e+08,-55.9694
2.240000000e+08,-57.1548
2.243733333e+08,-66.4468
2.247466667e+08,-65.3241
2.251200000e+08,-70.9982
2.254933333e+08,-64.0872
2.258666667e+08,-59.0523
2.262400000e+08,-48.8384
2.266133333e+08,-48.4976
2.269866667e+08,-63.6792
2.273600000e+08,-62.6095
2.277333333e+08,-50.0815
2.281066667e+08,-48.1468
2.284800000e+08,-62.2646
2.288533333e+08,-55.8339
2.292266667e+08,-53.3865
2.296000000e+08,-66.2972
2.299733333e+08,-68.2459
2.303466667e+08,-68.1408
2.307200000e+08,-71.7707
2.310933333e+08,-66.2091
2.314666667e+08,-52.373
2.318400000e+08,-46.4814
2.322133333e+08,-52.8845
2.325866667e+08,-74.0149
2.329600000e+08,-67.309
2.333333333e+08,-68.6394
2.337066667e+08,-67.7134
2.340800000e+08,-64.3788
2.344533333e+08,-53.7768
2.348266667e+08,-55.1312
2.352000000e+08,-69.9396
2.355733333e+08,-69.2873
2.359466667e+08,-72.7261
2.363200000e+08,-77.3127
2.366933333e+08,-70.0275
2.370666667e+08,-47.4934
2.374400000e+08,-46.3893
2.378133333e+08,-67.662
2.381866667e+08,-72.5129
2.385600000e+08,-67.7776
2.389333333e+08,-68.109
2.393066667e+08,-72.3596
2.396800000e+08,-53.5409
2.400533333e+08,-50.6085
2.404266667e+08,-52.1894
2.408000000e+08,-75.5553
2.411733333e+08,-70.1201
2.415466667e+08,-72.2935
2.419200000e+08,-72.3602
2.422933333e+08,-61.3905
2.426666667e+08,-46.6835
2.430400000e+08,-52.1256
2.434133333e+08,-74.6366
2.437866667e+08,-70.0872
2.441600000e+08,-77.0937
2.445333333e+08,-72.4667
2.449066667e+08,-67.7165
2.452800000e+08,-53.1173
2.456533333e+08,-54.356
2.460266667e+08,-67.9065
2.464000000e+08,-71.6171
2.467733333e+08,-72.2257
2.471466667e+08,-67.9319
2.475200000e+08,-64.8237
2.478933333e+08,-48.7287
2.482666667e+08,-47.6325
2.486400000e+08,-58.2572
2.490133333e+08,-66.9378
2.493866667e+08,-66.1231
2.497600000e+08,-69.5532
2.501333333e+08,-68.2399
2.505066667e+08,-59.4869
2.508800000e+08,-54.3722
2.512533333e+08,-59.1579
2.516266667e+08,-55.2874
2.520000000e+08,-48.6875
2.523733333e+08,-60.1046
2.527466667e+08,-68.582
2.531200000e+08,-61.9184
2.534933333e+08,-49.1259
2.538666667e+08,-49.8554
2.542400000e+08,-63.3199
2.546133333e+08,-62.995
2.549866667e+08,-66.508
2.553600000e+08,-66.9448
2.557333333e+08,-67.0229
2.561066667e+08,-55.2398
2.564800000e+08,-54.7956
2.568533333e+08,-66.1163
2.572266667e+08,-65.6975
2.576000000e+08,-65.8655
2.579733333e+08,-71.8178
2.583466667e+08,-63.7122
2.587200000e+08,-53.0036
2.590933333e+08,-48.4094
2.594666667e+08,-52.4172
2.598400000e+08,-65.3722
2.602133333e+08,-71.0438
2.605866667e+08,-71.539
2.609600000e+08,-68.4729
2.613333333e+08,-64.3821
2.617066667e+08,-53.9704
2.620800000e+08,-54.4397
2.624533333e+08,-69.4775
2.628266667e+08,-69.8722
2.632000000e+08,-64.7771
2.635733333e+08,-70.8991
2.639466667e+08,-60.0858
2.643200000e+08,-50.5525
2.646933333e+08,-48.3169
2.650666667e+08,-67.2309
2.654400000e+08,-70.5855
2.658133333e+08,-67.7675
2.661866667e+08,-73.7465
2.665600000e+08,-71.5182
2.669333333e+08,-61.4584
2.673066667e+08,-53.44
2.676800000e+08,-62.5119
2.680533333e+08,-66.4786
2.684266667e+08,-63.9277
2.688000000e+08,-69.0776
2.691733333e+08,-65.3331
2.695466667e+08,-66.5395
2.699200000e+08,-49.003
2.702933333e+08,-52.1217
2.706666667e+08,-77.0887
2.710400000e+08,-74.3255
2.714133333e+08,-66.2223
2.717866667e+08,-67.176
2.721600000e+08,-76.1676
2.725333333e+08,-54.7574
2.729066667e+08,-55.6435
2.732800000e+08,-72.666
2.736533333e+08,-69.4565
2.740266667e+08,-68.5508
2.744000000e+08,-68.5137
2.747733333e+08,-70.1835
2.751466667e+08,-50.664
2.755200000e+08,-48.2717
2.758933333e+08,-46.769
2.762666667e+08,-48.5845
2.766400000e+08,-67.2648
2.770133333e+08,-70.516
2.773866667e+08,-76.9693
2.777600000e+08,-62.7199
2.781333333e+08,-55.5681
2.785066667e+08,-61.8847
2.788800000e+08,-71.6057
2.792533333e+08,-67.3545
2.796266667e+08,-66.8746
2.800000000e+08,-65.6072

