Model,MDO3104
Firmware Version,1.30

Waveform Type,RF_FD
Point Format,Y
Horizontal Units,Hz
Horizontal Scale,2.8e+07
,
Sample Interval,373333
Record Length,751
Gating,0.133155792277% to 100.0%
Probe Attenuation,1
Vertical Units,dBm
Vertical Offset,0
Vertical Scale,10
Vertical Position,0
Center Frequency,1.4e+08
Span,2.8e+08
Reference Level,-15
Label,
FREQUENCY,FD NORM
0.000000000e+00,-67.636
3.733333333e+05,-75.8683
7.466666667e+05,-80.4974
1.120000000e+06,-81.2493
1.493333333e+06,-71.3514
1.866666667e+06,-70.9277
2.240000000e+06,-79.1922
2.613333333e+06,-65.078
2.986666667e+06,-70.9659
3.360000000e+06,-59.7536
3.733333333e+06,-61.5942
4.106666667e+06,-63.192
4.480000000e+06,-62.7662
4.853333333e+06,-75.3245
5.226666667e+06,-67.1106
5.600000000e+06,-65.7067
5.973333333e+06,-65.9432
6.346666667e+06,-70.2391
6.720000000e+06,-70.5341
7.093333333e+06,-66.5315
7.466666667e+06,-66.2236
7.840000000e+06,-68.7349
8.213333333e+06,-68.7474
8.586666667e+06,-72.0844
8.960000000e+06,-71.6587
9.333333333e+06,-74.5231
9.706666667e+06,-79.1414
1.008000000e+07,-72.3955
1.045333333e+07,-72.947
1.082666667e+07,-68.7338
1.120000000e+07,-70.6763
1.157333333e+07,-75.2639
1.194666667e+07,-67.3808
1.232000000e+07,-64.0498
1.269333333e+07,-68.6099
1.306666667e+07,-74.607
1.344000000e+07,-64.8735
1.381333333e+07,-63.4895
1.418666667e+07,-68.5836
1.456000000e+07,-76.3724
1.493333333e+07,-78.5644
1.530666667e+07,-70.906
1.568000000e+07,-72.4881
1.605333333e+07,-62.3476
1.642666667e+07,-59.4339
1.680000000e+07,-64.4821
1.717333333e+07,-68.9027
1.754666667e+07,-71.3115
1.792000000e+07,-67.5247
1.829333333e+07,-69.7982
1.866666667e+07,-69.8103
1.904000000e+07,-62.6941
1.941333333e+07,-63.2151
1.978666667e+07,-72.319
2.016000000e+07,-73.8091
2.053333333e+07,-72.5349
2.090666667e+07,-72.8167
2.128000000e+07,-67.7345
2.165333333e+07,-61.5272
2.202666667e+07,-61.3656
2.240000000e+07,-67.8982
2.277333333e+07,-70.6427
2.314666667e+07,-70.6597
2.352000000e+07,-63.1568
2.389333333e+07,-69.4458
2.426666667e+07,-66.6282
2.464000000e+07,-60.8258
2.501333333e+07,-52.1943
2.538666667e+07,-60.4776
2.576000000e+07,-70.7383
2.613333333e+07,-65.6167
2.650666667e+07,-70.6883
2.688000000e+07,-68.7288
2.725333333e+07,-60.0825
2.762666667e+07,-62.1695
2.800000000e+07,-67.5153
2.837333333e+07,-68.7405
2.874666667e+07,-70.5727
2.912000000e+07,-72.1843
2.949333333e+07,-70.3747
2.986666667e+07,-59.5793
3.024000000e+07,-61.2839
3.061333333e+07,-84.4019
3.098666667e+07,-75.7646
3.136000000e+07,-73.033
3.173333333e+07,-74.8143
3.210666667e+07,-75.022
3.248000000e+07,-58.1978
3.285333333e+07,-57.7157
3.322666667e+07,-74.9582
3.360000000e+07,-76.2562
3.397333333e+07,-74.3601
3.434666667e+07,-75.4932
3.472000000e+07,-78.1323
3.509333333e+07,-66.7273
3.546666667e+07,-58.7096
3.584000000e+07,-60.893
3.621333333e+07,-62.225
3.658666667e+07,-71.4865
3.696000000e+07,-76.9352
3.733333333e+07,-79.4968
3.770666667e+07,-73.8016
3.808000000e+07,-59.0246
3.845333333e+07,-62.054
3.882666667e+07,-76.0245
3.920000000e+07,-75.5893
3.957333333e+07,-73.55
3.994666667e+07,-77.032
4.032000000e+07,-70.6763
4.069333333e+07,-59.2263
4.106666667e+07,-60.0926
4.144000000e+07,-69.6718
4.181333333e+07,-74.3923
4.218666667e+07,-74.1803
4.256000000e+07,-75.7241
4.293333333e+07,-75.5381
4.330666667e+07,-59.8779
4.368000000e+07,-58.7846
4.405333333e+07,-65.0623
4.442666667e+07,-74.1021
4.480000000e+07,-80.3418
4.517333333e+07,-76.1057
4.554666667e+07,-74.3063
4.592000000e+07,-67.5367
4.629333333e+07,-57.965
4.666666667e+07,-58.3611
4.704000000e+07,-68.7787
4.741333333e+07,-69.5767
4.778666667e+07,-65.8811
4.816000000e+07,-66.1594
4.853333333e+07,-69.0298
4.890666667e+07,-60.1054
4.928000000e+07,-57.819
4.965333333e+07,-73.1545
5.002666667e+07,-71.1134
5.040000000e+07,-70.8448
5.077333333e+07,-71.0159
5.114666667e+07,-71.2233
5.152000000e+07,-58.4985
5.189333333e+07,-54.6123
5.226666667e+07,-67.5055
5.264000000e+07,-74.6169
5.301333333e+07,-73.745
5.338666667e+07,-80.4641
5.376000000e+07,-73.7442
5.413333333e+07,-61.9722
5.450666667e+07,-55.932
5.488000000e+07,-60.5439
5.525333333e+07,-75.6713
5.562666667e+07,-77.0953
5.600000000e+07,-73.1937
5.637333333e+07,-70.3717
5.674666667e+07,-71.3864
5.712000000e+07,-53.0186
5.749333333e+07,-53.2409
5.786666667e+07,-75.283
5.824000000e+07,-78.6427
5.861333333e+07,-80.9692
5.898666667e+07,-71.8143
5.936000000e+07,-74.4598
5.973333333e+07,-36.152
6.010666667e+07,-33.7799
6.048000000e+07,-52.2995
6.085333333e+07,-70.9865
6.122666667e+07,-69.4957
6.160000000e+07,-71.594
6.197333333e+07,-70.064
6.234666667e+07,-59.3848
6.272000000e+07,-52.3379
6.309333333e+07,-59.5938
6.346666667e+07,-71.877
6.384000000e+07,-70.8733
6.421333333e+07,-74.588
6.458666667e+07,-67.3524
6.496000000e+07,-69.0347
6.533333333e+07,-53.8994
6.570666667e+07,-57.9138
6.608000000e+07,-73.0879
6.645333333e+07,-72.6682
6.682666667e+07,-72.5867
6.720000000e+07,-70.4263
6.757333333e+07,-68.1429
6.794666667e+07,-54.5349
6.832000000e+07,-54.2877
6.869333333e+07,-62.523
6.906666667e+07,-72.1424
6.944000000e+07,-75.1172
6.981333333e+07,-73.1621
7.018666667e+07,-67.7542
7.056000000e+07,-57.5343
7.093333333e+07,-55.8179
7.130666667e+07,-62.3451
7.168000000e+07,-62.6277
7.205333333e+07,-61.9609
7.242666667e+07,-71.0088
7.280000000e+07,-68.903
7.317333333e+07,-64.0816
7.354666667e+07,-54.2335
7.392000000e+07,-55.5829
7.429333333e+07,-67.2728
7.466666667e+07,-70.7157
7.504000000e+07,-70.2753
7.541333333e+07,-68.0192
7.578666667e+07,-62.832
7.616000000e+07,-55.9784
7.653333333e+07,-55.9875
7.690666667e+07,-65.3001
7.728000000e+07,-71.5146
7.765333333e+07,-69.5724
7.802666667e+07,-70.0035
7.840000000e+07,-66.4789
7.877333333e+07,-56.8053
7.914666667e+07,-53.9725
7.952000000e+07,-61.074
7.989333333e+07,-72.807
8.026666667e+07,-72.0104
8.064000000e+07,-68.3338
8.101333333e+07,-68.0348
8.138666667e+07,-65.2048
8.176000000e+07,-54.6336
8.213333333e+07,-57.1541
8.250666667e+07,-64.1901
8.288000000e+07,-66.9074
8.325333333e+07,-75.006
8.362666667e+07,-60.9599
8.400000000e+07,-52.4137
8.437333333e+07,-54.0795
8.474666667e+07,-53.8461
8.512000000e+07,-71.0972
8.549333333e+07,-74.1648
8.586666667e+07,-77.0178
8.624000000e+07,-66.3305
8.661333333e+07,-67.8695
8.698666667e+07,-57.3164
8.736000000e+07,-53.0815
8.773333333e+07,-67.0557
8.810666667e+07,-63.9202
8.848000000e+07,-71.0468
8.885333333e+07,-72.7761
8.922666667e+07,-72.8184
8.960000000e+07,-61.5901
8.997333333e+07,-50.143
9.034666667e+07,-56.1021
9.072000000e+07,-74.4855
9.109333333e+07,-78.9353
9.146666667e+07,-80.8537
9.184000000e+07,-68.4114
9.221333333e+07,-67.9581
9.258666667e+07,-52.3728
9.296000000e+07,-53.9135
9.333333333e+07,-72.251
9.370666667e+07,-71.9226
9.408000000e+07,-70.0192
9.445333333e+07,-79.3328
9.482666667e+07,-64.9449
9.520000000e+07,-53.155
9.557333333e+07,-52.7256
9.594666667e+07,-53.5816
9.632000000e+07,-67.2616
9.669333333e+07,-68.7078
9.706666667e+07,-65.8511
9.744000000e+07,-66.6193
9.781333333e+07,-58.7166
9.818666667e+07,-54.3574
9.856000000e+07,-63.5288
9.893333333e+07,-68.4392
9.930666667e+07,-65.0114
9.968000000e+07,-67.9064
1.000533333e+08,-67.116
1.004266667e+08,-63.5267
1.008000000e+08,-52.6495
1.011733333e+08,-55.2998
1.015466667e+08,-66.9581
1.019200000e+08,-70.5626
1.022933333e+08,-69.0997
1.026666667e+08,-65.7368
1.030400000e+08,-68.7382
1.034133333e+08,-54.433
1.037866667e+08,-54.3259
1.041600000e+08,-68.6835
1.045333333e+08,-68.9378
1.049066667e+08,-70.4026
1.052800000e+08,-67.2841
1.056533333e+08,-61.7552
1.060266667e+08,-54.8985
1.064000000e+08,-52.1445
1.067733333e+08,-56.6404
1.071466667e+08,-61.807
1.075200000e+08,-70.2223
1.078933333e+08,-50.923
1.082666667e+08,-52.1099
1.086400000e+08,-62.627
1.090133333e+08,-53.685
1.093866667e+08,-54.8371
1.097600000e+08,-68.4484
1.101333333e+08,-70.5394
1.105066667e+08,-74.7351
1.108800000e+08,-71.9516
1.112533333e+08,-65.8977
1.116266667e+08,-51.7282
1.120000000e+08,-50.4744
1.123733333e+08,-67.8637
1.127466667e+08,-67.4498
1.131200000e+08,-77.2072
1.134933333e+08,-67.5604
1.138666667e+08,-71.4759
1.142400000e+08,-57.1022
1.146133333e+08,-53.2497
1.149866667e+08,-63.1085
1.153600000e+08,-68.5768
1.157333333e+08,-77.3167
1.161066667e+08,-72.5795
1.164800000e+08,-76.5458
1.168533333e+08,-60.9657
1.172266667e+08,-49.2368
1.176000000e+08,-53.4507
1.179733333e+08,-68.1832
1.183466667e+08,-72.3318
1.187200000e+08,-72.7423
1.190933333e+08,-74.0865
1.194666667e+08,-62.2484
1.198400000e+08,-35.7982
1.202133333e+08,-36.608
1.205866667e+08,-69.8031
1.209600000e+08,-70.4455
1.213333333e+08,-72.0423
1.217066667e+08,-71.2487
1.220800000e+08,-69.9422
1.224533333e+08,-50.9736
1.228266667e+08,-49.2852
1.232000000e+08,-66.3961
1.235733333e+08,-69.7532
1.239466667e+08,-66.6798
1.243200000e+08,-70.6333
1.246933333e+08,-71.229
1.250666667e+08,-59.7946
1.254400000e+08,-51.5247
1.258133333e+08,-59.8409
1.261866667e+08,-68.1712
1.265600000e+08,-73.5489
1.269333333e+08,-65.6798
1.273066667e+08,-66.6597
1.276800000e+08,-67.3507
1.280533333e+08,-49.4184
1.284266667e+08,-52.1047
1.288000000e+08,-66.6704
1.291733333e+08,-63.908
1.295466667e+08,-73.0994
1.299200000e+08,-69.4758
1.302933333e+08,-67.3603
1.306666667e+08,-51.5127
1.310400000e+08,-51.9218
1.314133333e+08,-61.3122
1.317866667e+08,-50.4902
1.321600000e+08,-50.3907
1.325333333e+08,-63.673
1.329066667e+08,-68.3844
1.332800000e+08,-51.809
1.336533333e+08,-50.2446
1.340266667e+08,-53.8564
1.344000000e+08,-65.9518
1.347733333e+08,-64.2485
1.351466667e+08,-69.1661
1.355200000e+08,-66.4561
1.358933333e+08,-61.0283
1.362666667e+08,-52.075
1.366400000e+08,-52.393
1.370133333e+08,-68.481
1.373866667e+08,-67.9469
1.377600000e+08,-68.9136
1.381333333e+08,-66.0823
1.385066667e+08,-63.7998
1.388800000e+08,-50.8586
1.392533333e+08,-49.7507
1.396266667e+08,-62.1524
1.400000000e+08,-67.712
1.403733333e+08,-65.2
1.407466667e+08,-69.8317
1.411200000e+08,-66.4007
1.414933333e+08,-55.6739
1.418666667e+08,-51.5852
1.422400000e+08,-59.9284
1.426133333e+08,-70.5291
1.429866667e+08,-64.6692
1.433600000e+08,-65.6911
1.437333333e+08,-57.9361
1.441066667e+08,-59.3012
1.444800000e+08,-49.5556
1.448533333e+08,-51.7587
1.452266667e+08,-65.3435
1.456000000e+08,-68.0944
1.459733333e+08,-70.8413
1.463466667e+08,-73.1971
1.467200000e+08,-68.9012
1.470933333e+08,-50.9929
1.474666667e+08,-50.85
1.478400000e+08,-71.9568
1.482133333e+08,-79.8458
1.485866667e+08,-76.39
1.489600000e+08,-71.6456
1.493333333e+08,-71.7021
1.497066667e+08,-51.834
1.500800000e+08,-48.3844
1.504533333e+08,-63.9354
1.508266667e+08,-67.5468
1.512000000e+08,-68.3289
1.515733333e+08,-67.3601
1.519466667e+08,-71.1165
1.523200000e+08,-60.3091
1.526933333e+08,-50.5379
1.530666667e+08,-57.0153
1.534400000e+08,-71.9082
1.538133333e+08,-73.1105
1.541866667e+08,-69.1746
1.545600000e+08,-71.8114
1.549333333e+08,-71.727
1.553066667e+08,-47.9429
1.556800000e+08,-49.6148
1.560533333e+08,-49.6646
1.564266667e+08,-62.3051
1.568000000e+08,-63.4605
1.571733333e+08,-67.5804
1.575466667e+08,-67.8308
1.579200000e+08,-52.094
1.582933333e+08,-51.4637
1.586666667e+08,-63.0973
1.590400000e+08,-69.2917
1.594133333e+08,-70.1368
1.597866667e+08,-67.5959
1.601600000e+08,-63.9863
1.605333333e+08,-52.0772
1.609066667e+08,-48.9006
1.612800000e+08,-54.9749
1.616533333e+08,-63.7816
1.620266667e+08,-64.847
1.624000000e+08,-66.0917
1.627733333e+08,-65.0809
1.631466667e+08,-62.5135
1.635200000e+08,-52.1505
1.638933333e+08,-54.4953
1.642666667e+08,-64.9487
1.646400000e+08,-66.0903
1.650133333e+08,-67.7466
1.653866667e+08,-68.4754
1.657600000e+08,-63.2332
1.661333333e+08,-50.0372
1.665066667e+08,-49.553
1.668800000e+08,-65.4951
1.672533333e+08,-61.4667
1.676266667e+08,-63.9159
1.680000000e+08,-67.9796
1.683733333e+08,-64.9941
1.687466667e+08,-54.5601
1.691200000e+08,-52.2
1.694933333e+08,-58.2774
1.698666667e+08,-69.6882
1.702400000e+08,-72.7765
1.706133333e+08,-70.2318
1.709866667e+08,-65.5768
1.713600000e+08,-58.3613
1.717333333e+08,-47.7404
1.721066667e+08,-48.6621
1.724800000e+08,-65.4142
1.728533333e+08,-68.4677
1.732266667e+08,-67.0821
1.736000000e+08,-67.778
1.739733333e+08,-66.4225
1.743466667e+08,-52.3463
1.747200000e+08,-51.511
1.750933333e+08,-72.5233
1.754666667e+08,-74.8306
1.758400000e+08,-66.3253
1.762133333e+08,-67.0804
1.765866667e+08,-66.306
1.769600000e+08,-51.788
1.773333333e+08,-46.8378
1.777066667e+08,-59.2327
1.780800000e+08,-70.0475
1.784533333e+08,-78.2258
1.788266667e+08,-74.4582
1.792000000e+08,-78.2713
1.795733333e+08,-52.9467
1.799466667e+08,-39.7879
1.803200000e+08,-44.8256
1.806933333e+08,-74.9965
1.810666667e+08,-76.6743
1.814400000e+08,-71.028
1.818133333e+08,-69.6786
1.821866667e+08,-68.6033
1.825600000e+08,-46.6873
1.829333333e+08,-48.02
1.833066667e+08,-65.2945
1.836800000e+08,-69.8005
1.840533333e+08,-68.5042
1.844266667e+08,-78.3854
1.848000000e+08,-72.7633
1.851733333e+08,-52.3631
1.855466667e+08,-51.034
1.859200000e+08,-63.1884
1.862933333e+08,-71.6853
1.866666667e+08,-67.7583
1.870400000e+08,-69.6152
1.874133333e+08,-76.1926
1.877866667e+08,-54.2446
1.881600000e+08,-47.7381
1.885333333e+08,-52.7192
1.889066667e+08,-62.3601
1.892800000e+08,-63.1611
1.896533333e+08,-64.6134
1.900266667e+08,-66.4334
1.904000000e+08,-67.3817
1.907733333e+08,-52.185
1.911466667e+08,-53.58
1.915200000e+08,-53.7128
1.918933333e+08,-54.228
1.922666667e+08,-61.2087
1.926400000e+08,-67.7025
1.930133333e+08,-61.1264
1.933866667e+08,-49.1124
1.937600000e+08,-49.1009
1.941333333e+08,-58.7406
1.945066667e+08,-63.2907
1.948800000e+08,-68.6774
1.952533333e+08,-65.5101
1.956266667e+08,-65.2499
1.960000000e+08,-54.9636
1.963733333e+08,-53.649
1.967466667e+08,-57.1196
1.971200000e+08,-63.4068
1.974933333e+08,-64.1998
1.978666667e+08,-72.0087
1.982400000e+08,-64.8565
1.986133333e+08,-55.8687
1.989866667e+08,-47.9752
1.993600000e+08,-48.1308
1.997333333e+08,-65.2828
2.001066667e+08,-63.9053
2.004800000e+08,-65.6605
2.008533333e+08,-73.6908
2.012266667e+08,-70.6702
2.016000000e+08,-53.4295
2.019733333e+08,-51.8639
2.023466667e+08,-66.1165
2.027200000e+08,-65.5958
2.030933333e+08,-76.5629
2.034666667e+08,-64.1414
2.038400000e+08,-48.5399
2.042133333e+08,-48.9646
2.045866667e+08,-46.5805
2.049600000e+08,-58.8206
2.053333333e+08,-75.926
2.057066667e+08,-76.771
2.060800000e+08,-66.1214
2.064533333e+08,-67.3588
2.068266667e+08,-64.856
2.072000000e+08,-52.4116
2.075733333e+08,-56.1022
2.079466667e+08,-67.8097
2.083200000e+08,-64.5663
2.086933333e+08,-66.4466
2.090666667e+08,-68.1639
2.094400000e+08,-72.6811
2.098133333e+08,-47.2236
2.101866667e+08,-47.1881
2.105600000e+08,-65.2152
2.109333333e+08,-71.968
2.113066667e+08,-71.4292
2.116800000e+08,-63.4655
2.120533333e+08,-60.8024
2.124266667e+08,-57.0176
2.128000000e+08,-53.1115
2.131733333e+08,-64.0405
2.135466667e+08,-66.6805
2.139200000e+08,-63.2952
2.142933333e+08,-64.8651
2.146666667e+08,-73.1049
2.150400000e+08,-56.4616
2.154133333e+08,-46.7731
2.157866667e+08,-53.9923
2.161600000e+08,-64.1953
2.165333333e+08,-64.5905
2.169066667e+08,-70.135
2.172800000e+08,-69.2187
2.176533333e+08,-63.9964
2.180266667e+08,-51.6232
2.184000000e+08,-54.621
2.187733333e+08,-71.8609
2.191466667e+08,-69.5904
2.195200000e+08,-64.5994
2.198933333e+08,-63.6917
2.202666667e+08,-65.2099
2.206400000e+08,-47.0678
2.210133333e+08,-46.9103
2.213866667e+08,-57.5156
2.217600000e+08,-63.1763
2.221333333e+08,-62.6761
2.225066667e+08,-66.8356
2.228800000e+08,-62.5242
2.232533333e+08,-54.906
2.236266667e+08,-52.1116
2.240000000e+08,-58.0369
2.243733333e+08,-65.7058
2.247466667e+08,-64.5843
2.251200000e+08,-70.407
2.254933333e+08,-65.2656
2.258666667e+08,-56.0559
2.262400000e+08,-47.4749
2.266133333e+08,-47.8734
2.269866667e+08,-58.8968
2.273600000e+08,-66.5744
2.277333333e+08,-51.2993
2.281066667e+08,-48.4117
2.284800000e+08,-63.0923
2.288533333e+08,-56.3931
2.292266667e+08,-54.434
2.296000000e+08,-67.4635
2.299733333e+08,-67.8101
2.303466667e+08,-68.4509
2.307200000e+08,-69.7383
2.310933333e+08,-65.9479
2.314666667e+08,-52.3301
2.318400000e+08,-46.4871
2.322133333e+08,-52.9459
2.325866667e+08,-67.8953
2.329600000e+08,-70.0642
2.333333333e+08,-68.1725
2.337066667e+08,-69.5788
2.340800000e+08,-63.7596
2.344533333e+08,-52.1364
2.348266667e+08,-53.4948
2.352000000e+08,-70.0149
2.355733333e+08,-74.048
2.359466667e+08,-73.0798
2.363200000e+08,-72.7236
2.366933333e+08,-69.0082
2.370666667e+08,-46.798
2.374400000e+08,-45.749
2.378133333e+08,-71.1833
2.381866667e+08,-68.2722
2.385600000e+08,-67.9738
2.389333333e+08,-73.8097
2.393066667e+08,-55.0042
2.396800000e+08,-49.0798
2.400533333e+08,-48.456
2.404266667e+08,-58.3894
2.408000000e+08,-73.8703
2.411733333e+08,-72.3209
2.415466667e+08,-71.4051
2.419200000e+08,-68.0518
2.422933333e+08,-59.4541
2.426666667e+08,-45.967
2.430400000e+08,-51.0209
2.434133333e+08,-68.7533
2.437866667e+08,-72.322
2.441600000e+08,-68.8293
2.445333333e+08,-70.3086
2.449066667e+08,-71.9067
2.452800000e+08,-52.6976
2.456533333e+08,-54.0857
2.460266667e+08,-67.8514
2.464000000e+08,-68.4338
2.467733333e+08,-72.1445
2.471466667e+08,-71.1445
2.475200000e+08,-67.8537
2.478933333e+08,-47.6793
2.482666667e+08,-46.7393
2.486400000e+08,-56.5287
2.490133333e+08,-66.7862
2.493866667e+08,-68.7536
2.497600000e+08,-74.0095
2.501333333e+08,-68.4061
2.505066667e+08,-58.8827
2.508800000e+08,-53.9403
2.512533333e+08,-58.7736
2.516266667e+08,-54.9276
2.520000000e+08,-47.528
2.523733333e+08,-56.2507
2.527466667e+08,-64.8424
2.531200000e+08,-63.5774
2.534933333e+08,-48.3042
2.538666667e+08,-49.0883
2.542400000e+08,-62.3086
2.546133333e+08,-66.6937
2.549866667e+08,-66.5961
2.553600000e+08,-66.7327
2.557333333e+08,-68.9403
2.561066667e+08,-55.3964
2.564800000e+08,-55.4339
2.568533333e+08,-65.7381
2.572266667e+08,-73.804
2.576000000e+08,-68.6941
2.579733333e+08,-70.1185
2.583466667e+08,-65.101
2.587200000e+08,-52.452
2.590933333e+08,-48.004
2.594666667e+08,-52.3957
2.598400000e+08,-67.3375
2.602133333e+08,-66.0389
2.605866667e+08,-72.1049
2.609600000e+08,-72.2386
2.613333333e+08,-60.3303
2.617066667e+08,-53.0303
2.620800000e+08,-53.9896
2.624533333e+08,-67.8119
2.628266667e+08,-68.2973
2.632000000e+08,-66.8071
2.635733333e+08,-62.9607
2.639466667e+08,-57.6958
2.643200000e+08,-49.9966
2.646933333e+08,-47.9397
2.650666667e+08,-74.0726
2.654400000e+08,-70.6401
2.658133333e+08,-69.7487
2.661866667e+08,-69.9437
2.665600000e+08,-80.8522
2.669333333e+08,-58.3605
2.673066667e+08,-52.8402
2.676800000e+08,-62.5504
2.680533333e+08,-70.2067
2.684266667e+08,-77.7411
2.688000000e+08,-70.2108
2.691733333e+08,-69.9238
2.695466667e+08,-70.6448
2.699200000e+08,-50.2966
2.702933333e+08,-53.3841
2.706666667e+08,-71.6293
2.710400000e+08,-69.2334
2.714133333e+08,-70.0425
2.717866667e+08,-77.8938
2.721600000e+08,-72.5241
2.725333333e+08,-53.4401
2.729066667e+08,-54.062
2.732800000e+08,-69.7327
2.736533333e+08,-69.1105
2.740266667e+08,-70.6432
2.744000000e+08,-68.5568
2.747733333e+08,-69.6799
2.751466667e+08,-50.4592
2.755200000e+08,-48.1299
2.758933333e+08,-46.1715
2.762666667e+08,-48.2271
2.766400000e+08,-67.2941
2.770133333e+08,-69.6207
2.773866667e+08,-69.0576
2.777600000e+08,-62.1882
2.781333333e+08,-54.1317
2.785066667e+08,-61.5853
2.788800000e+08,-67.5019
2.792533333e+08,-69.5731
2.796266667e+08,-69.824
2.800000000e+08,-70.3797

