Model,MDO3104
Firmware Version,1.30

Waveform Type,RF_FD
Point Format,Y
Horizontal Units,Hz
Horizontal Scale,2.8e+07
,
Sample Interval,373333
Record Length,751
Gating,0.133155792277% to 100.0%
Probe Attenuation,1
Vertical Units,dBm
Vertical Offset,0
Vertical Scale,10
Vertical Position,0
Center Frequency,1.4e+08
Span,2.8e+08
Reference Level,-15
Label,
FREQUENCY,FD NORM
0.000000000e+00,-62.028
3.733333333e+05,-70.6132
7.466666667e+05,-87.4748
1.120000000e+06,-81.2943
1.493333333e+06,-77.2418
1.866666667e+06,-73.2011
2.240000000e+06,-76.5416
2.613333333e+06,-66.3254
2.986666667e+06,-68.1188
3.360000000e+06,-57.6177
3.733333333e+06,-58.9921
4.106666667e+06,-65.4301
4.480000000e+06,-63.5334
4.853333333e+06,-70.8516
5.226666667e+06,-65.42
5.600000000e+06,-69.2511
5.973333333e+06,-66.7985
6.346666667e+06,-68.5302
6.720000000e+06,-80.5234
7.093333333e+06,-75.1908
7.466666667e+06,-74.2722
7.840000000e+06,-72.017
8.213333333e+06,-69.0262
8.586666667e+06,-68.839
8.960000000e+06,-68.9402
9.333333333e+06,-70.4248
9.706666667e+06,-66.8211
1.008000000e+07,-69.6036
1.045333333e+07,-69.1024
1.082666667e+07,-68.8872
1.120000000e+07,-67.6511
1.157333333e+07,-67.6524
1.194666667e+07,-71.0889
1.232000000e+07,-69.7348
1.269333333e+07,-72.0686
1.306666667e+07,-64.7032
1.344000000e+07,-65.7137
1.381333333e+07,-67.9364
1.418666667e+07,-71.0519
1.456000000e+07,-70.0028
1.493333333e+07,-69.7859
1.530666667e+07,-65.2154
1.568000000e+07,-68.9262
1.605333333e+07,-74.5819
1.642666667e+07,-75.0257
1.680000000e+07,-66.452
1.717333333e+07,-66.7908
1.754666667e+07,-71.291
1.792000000e+07,-65.3134
1.829333333e+07,-63.0151
1.866666667e+07,-65.278
1.904000000e+07,-61.6545
1.941333333e+07,-62.7435
1.978666667e+07,-72.193
2.016000000e+07,-78.1072
2.053333333e+07,-77.9325
2.090666667e+07,-66.0068
2.128000000e+07,-68.3835
2.165333333e+07,-71.3509
2.202666667e+07,-70.4091
2.240000000e+07,-66.4363
2.277333333e+07,-65.2486
2.314666667e+07,-69.0876
2.352000000e+07,-68.1318
2.389333333e+07,-77.0326
2.426666667e+07,-63.8685
2.464000000e+07,-55.8371
2.501333333e+07,-52.5857
2.538666667e+07,-62.5754
2.576000000e+07,-71.2598
2.613333333e+07,-65.6406
2.650666667e+07,-66.3307
2.688000000e+07,-64.1642
2.725333333e+07,-58.3637
2.762666667e+07,-61.3336
2.800000000e+07,-70.2185
2.837333333e+07,-70.8548
2.874666667e+07,-67.4649
2.912000000e+07,-70.0072
2.949333333e+07,-73.7202
2.986666667e+07,-60.6762
3.024000000e+07,-61.3657
3.061333333e+07,-69.5696
3.098666667e+07,-74.2776
3.136000000e+07,-70.641
3.173333333e+07,-71.0359
3.210666667e+07,-70.6364
3.248000000e+07,-59.9275
3.285333333e+07,-59.2787
3.322666667e+07,-77.3724
3.360000000e+07,-78.9538
3.397333333e+07,-79.7313
3.434666667e+07,-75.9667
3.472000000e+07,-74.5356
3.509333333e+07,-62.1466
3.546666667e+07,-57.9451
3.584000000e+07,-60.2817
3.621333333e+07,-60.2145
3.658666667e+07,-81.3049
3.696000000e+07,-74.014
3.733333333e+07,-72.747
3.770666667e+07,-70.7679
3.808000000e+07,-58.0569
3.845333333e+07,-62.0073
3.882666667e+07,-69.8961
3.920000000e+07,-66.6927
3.957333333e+07,-75.9863
3.994666667e+07,-80.5342
4.032000000e+07,-69.0494
4.069333333e+07,-56.9557
4.106666667e+07,-57.8963
4.144000000e+07,-67.1557
4.181333333e+07,-81.9132
4.218666667e+07,-70.9753
4.256000000e+07,-70.5244
4.293333333e+07,-72.7257
4.330666667e+07,-60.1993
4.368000000e+07,-59.233
4.405333333e+07,-64.6126
4.442666667e+07,-72.0607
4.480000000e+07,-77.9267
4.517333333e+07,-75.661
4.554666667e+07,-73.1535
4.592000000e+07,-62.0726
4.629333333e+07,-56.9685
4.666666667e+07,-57.2388
4.704000000e+07,-68.9278
4.741333333e+07,-70.0406
4.778666667e+07,-71.2902
4.816000000e+07,-63.8683
4.853333333e+07,-72.8869
4.890666667e+07,-59.8846
4.928000000e+07,-58.7149
4.965333333e+07,-70.9628
5.002666667e+07,-71.301
5.040000000e+07,-71.6291
5.077333333e+07,-73.4602
5.114666667e+07,-75.082
5.152000000e+07,-59.7345
5.189333333e+07,-54.8882
5.226666667e+07,-64.2722
5.264000000e+07,-73.2801
5.301333333e+07,-73.4979
5.338666667e+07,-75.841
5.376000000e+07,-76.2363
5.413333333e+07,-64.5152
5.450666667e+07,-55.8389
5.488000000e+07,-58.7858
5.525333333e+07,-75.601
5.562666667e+07,-77.9408
5.600000000e+07,-79.6503
5.637333333e+07,-76.0708
5.674666667e+07,-69.6777
5.712000000e+07,-53.0151
5.749333333e+07,-53.1978
5.786666667e+07,-71.9263
5.824000000e+07,-72.0417
5.861333333e+07,-74.805
5.898666667e+07,-80.8467
5.936000000e+07,-75.5154
5.973333333e+07,-36.2061
6.010666667e+07,-33.9107
6.048000000e+07,-53.1028
6.085333333e+07,-71.9711
6.122666667e+07,-72.0889
6.160000000e+07,-71.4085
6.197333333e+07,-78.8569
6.234666667e+07,-59.9731
6.272000000e+07,-52.9112
6.309333333e+07,-61.9695
6.346666667e+07,-65.957
6.384000000e+07,-67.6678
6.421333333e+07,-67.7248
6.458666667e+07,-70.0987
6.496000000e+07,-68.4472
6.533333333e+07,-53.8839
6.570666667e+07,-57.4704
6.608000000e+07,-76.3204
6.645333333e+07,-77.0089
6.682666667e+07,-70.9341
6.720000000e+07,-72.5458
6.757333333e+07,-65.1494
6.794666667e+07,-55.2511
6.832000000e+07,-56.4441
6.869333333e+07,-64.745
6.906666667e+07,-67.7313
6.944000000e+07,-69.2456
6.981333333e+07,-71.7977
7.018666667e+07,-70.6071
7.056000000e+07,-56.138
7.093333333e+07,-54.7959
7.130666667e+07,-62.1511
7.168000000e+07,-69.6367
7.205333333e+07,-64.1032
7.242666667e+07,-70.5142
7.280000000e+07,-71.5061
7.317333333e+07,-61.8948
7.354666667e+07,-57.126
7.392000000e+07,-58.7932
7.429333333e+07,-68.1878
7.466666667e+07,-68.8778
7.504000000e+07,-75.0364
7.541333333e+07,-67.9
7.578666667e+07,-67.9409
7.616000000e+07,-57.755
7.653333333e+07,-57.1216
7.690666667e+07,-67.8622
7.728000000e+07,-73.8455
7.765333333e+07,-70.0929
7.802666667e+07,-73.1994
7.840000000e+07,-69.7326
7.877333333e+07,-58.0879
7.914666667e+07,-54.4328
7.952000000e+07,-62.7536
7.989333333e+07,-68.6472
8.026666667e+07,-76.008
8.064000000e+07,-72.0029
8.101333333e+07,-67.5143
8.138666667e+07,-62.8394
8.176000000e+07,-53.8426
8.213333333e+07,-55.0367
8.250666667e+07,-66.115
8.288000000e+07,-69.8443
8.325333333e+07,-71.225
8.362666667e+07,-61.6423
8.400000000e+07,-53.5508
8.437333333e+07,-52.9183
8.474666667e+07,-52.7425
8.512000000e+07,-72.0381
8.549333333e+07,-69.4692
8.586666667e+07,-67.9807
8.624000000e+07,-70.9353
8.661333333e+07,-70.7478
8.698666667e+07,-58.0035
8.736000000e+07,-53.9524
8.773333333e+07,-72.9207
8.810666667e+07,-73.3923
8.848000000e+07,-74.2012
8.885333333e+07,-73.8408
8.922666667e+07,-69.8534
8.960000000e+07,-63.6598
8.997333333e+07,-54.1716
9.034666667e+07,-61.204
9.072000000e+07,-80.1325
9.109333333e+07,-71.3058
9.146666667e+07,-68.2283
9.184000000e+07,-69.0373
9.221333333e+07,-69.441
9.258666667e+07,-53.8391
9.296000000e+07,-56.0003
9.333333333e+07,-73.0665
9.370666667e+07,-66.7513
9.408000000e+07,-65.5428
9.445333333e+07,-66.4854
9.482666667e+07,-71.9283
9.520000000e+07,-53.0085
9.557333333e+07,-52.3794
9.594666667e+07,-54.0512
9.632000000e+07,-56.3501
9.669333333e+07,-72.4945
9.706666667e+07,-72.5761
9.744000000e+07,-68.1054
9.781333333e+07,-56.5482
9.818666667e+07,-53.667
9.856000000e+07,-60.7983
9.893333333e+07,-67.9893
9.930666667e+07,-73.6915
9.968000000e+07,-71.9132
1.000533333e+08,-71.9963
1.004266667e+08,-62.6648
1.008000000e+08,-52.6489
1.011733333e+08,-54.8375
1.015466667e+08,-70.5735
1.019200000e+08,-64.2071
1.022933333e+08,-63.3055
1.026666667e+08,-67.7124
1.030400000e+08,-70.7123
1.034133333e+08,-53.8109
1.037866667e+08,-54.2625
1.041600000e+08,-66.275
1.045333333e+08,-71.6367
1.049066667e+08,-67.2211
1.052800000e+08,-65.5355
1.056533333e+08,-64.2985
1.060266667e+08,-55.2379
1.064000000e+08,-52.4332
1.067733333e+08,-56.8651
1.071466667e+08,-69.7873
1.075200000e+08,-63.0655
1.078933333e+08,-51.9957
1.082666667e+08,-56.0628
1.086400000e+08,-58.0218
1.090133333e+08,-53.6495
1.093866667e+08,-54.3802
1.097600000e+08,-68.9674
1.101333333e+08,-72.148
1.105066667e+08,-71.2168
1.108800000e+08,-74.9384
1.112533333e+08,-68.7628
1.116266667e+08,-52.9107
1.120000000e+08,-51.3688
1.123733333e+08,-68.5337
1.127466667e+08,-67.2462
1.131200000e+08,-67.4146
1.134933333e+08,-66.1233
1.138666667e+08,-66.9121
1.142400000e+08,-59.1171
1.146133333e+08,-53.1538
1.149866667e+08,-62.2301
1.153600000e+08,-77.3843
1.157333333e+08,-77.0412
1.161066667e+08,-77.9127
1.164800000e+08,-72.7203
1.168533333e+08,-60.6775
1.172266667e+08,-49.4717
1.176000000e+08,-53.9047
1.179733333e+08,-74.0467
1.183466667e+08,-69.6559
1.187200000e+08,-68.8592
1.190933333e+08,-68.3537
1.194666667e+08,-59.9744
1.198400000e+08,-35.4962
1.202133333e+08,-36.1996
1.205866667e+08,-67.0493
1.209600000e+08,-70.8495
1.213333333e+08,-71.2527
1.217066667e+08,-76.7407
1.220800000e+08,-75.3809
1.224533333e+08,-50.1641
1.228266667e+08,-48.5515
1.232000000e+08,-63.6865
1.235733333e+08,-69.1483
1.239466667e+08,-71.03
1.243200000e+08,-70.9614
1.246933333e+08,-68.9558
1.250666667e+08,-56.4559
1.254400000e+08,-50.4035
1.258133333e+08,-58.211
1.261866667e+08,-70.7107
1.265600000e+08,-74.5579
1.269333333e+08,-68.8548
1.273066667e+08,-68.7858
1.276800000e+08,-67.6104
1.280533333e+08,-49.4956
1.284266667e+08,-53.0536
1.288000000e+08,-63.8884
1.291733333e+08,-65.6159
1.295466667e+08,-67.197
1.299200000e+08,-65.0867
1.302933333e+08,-64.3442
1.306666667e+08,-52.0413
1.310400000e+08,-52.8214
1.314133333e+08,-63.1585
1.317866667e+08,-51.669
1.321600000e+08,-50.8465
1.325333333e+08,-69.2879
1.329066667e+08,-64.6253
1.332800000e+08,-52.8614
1.336533333e+08,-51.1718
1.340266667e+08,-53.3266
1.344000000e+08,-65.3337
1.347733333e+08,-67.1251
1.351466667e+08,-72.1285
1.355200000e+08,-68.8984
1.358933333e+08,-59.0925
1.362666667e+08,-52.7526
1.366400000e+08,-52.8951
1.370133333e+08,-63.5623
1.373866667e+08,-67.1221
1.377600000e+08,-67.2946
1.381333333e+08,-67.417
1.385066667e+08,-64.7552
1.388800000e+08,-51.4812
1.392533333e+08,-49.5103
1.396266667e+08,-63.4461
1.400000000e+08,-66.3076
1.403733333e+08,-65.0871
1.407466667e+08,-69.3904
1.411200000e+08,-62.3258
1.414933333e+08,-55.5484
1.418666667e+08,-51.1208
1.422400000e+08,-57.8609
1.426133333e+08,-69.2876
1.429866667e+08,-69.6547
1.433600000e+08,-68.159
1.437333333e+08,-67.823
1.441066667e+08,-59.0045
1.444800000e+08,-48.6593
1.448533333e+08,-51.0795
1.452266667e+08,-70.2737
1.456000000e+08,-65.5125
1.459733333e+08,-72.2617
1.463466667e+08,-71.9015
1.467200000e+08,-68.9745
1.470933333e+08,-52.0954
1.474666667e+08,-51.9625
1.478400000e+08,-70.5273
1.482133333e+08,-70.3396
1.485866667e+08,-76.7299
1.489600000e+08,-72.7674
1.493333333e+08,-74.9197
1.497066667e+08,-51.731
1.500800000e+08,-48.5056
1.504533333e+08,-65.3524
1.508266667e+08,-68.9121
1.512000000e+08,-72.2894
1.515733333e+08,-69.3661
1.519466667e+08,-70.3491
1.523200000e+08,-61.6324
1.526933333e+08,-51.5358
1.530666667e+08,-58.8375
1.534400000e+08,-70.1419
1.538133333e+08,-70.0711
1.541866667e+08,-71.9762
1.545600000e+08,-67.8508
1.549333333e+08,-63.2808
1.553066667e+08,-48.5985
1.556800000e+08,-50.9651
1.560533333e+08,-49.4494
1.564266667e+08,-61.7112
1.568000000e+08,-69.3112
1.571733333e+08,-66.0281
1.575466667e+08,-65.9419
1.579200000e+08,-51.9679
1.582933333e+08,-51.6185
1.586666667e+08,-64.6445
1.590400000e+08,-73.4762
1.594133333e+08,-65.0673
1.597866667e+08,-68.3863
1.601600000e+08,-64.8618
1.605333333e+08,-51.7467
1.609066667e+08,-49.0337
1.612800000e+08,-52.9937
1.616533333e+08,-64.4534
1.620266667e+08,-65.9778
1.624000000e+08,-64.1258
1.627733333e+08,-63.395
1.631466667e+08,-63.833
1.635200000e+08,-52.7303
1.638933333e+08,-54.0402
1.642666667e+08,-69.4842
1.646400000e+08,-63.235
1.650133333e+08,-62.7147
1.653866667e+08,-71.2047
1.657600000e+08,-62.9895
1.661333333e+08,-50.3154
1.665066667e+08,-49.5762
1.668800000e+08,-61.16
1.672533333e+08,-64.4958
1.676266667e+08,-68.1341
1.680000000e+08,-61.5067
1.683733333e+08,-62.4377
1.687466667e+08,-55.6252
1.691200000e+08,-52.4091
1.694933333e+08,-57.754
1.698666667e+08,-68.116
1.702400000e+08,-65.3193
1.706133333e+08,-68.3353
1.709866667e+08,-66.2463
1.713600000e+08,-57.0393
1.717333333e+08,-48.4191
1.721066667e+08,-49.3676
1.724800000e+08,-63.1235
1.728533333e+08,-67.2224
1.732266667e+08,-74.2424
1.736000000e+08,-66.1866
1.739733333e+08,-70.5507
1.743466667e+08,-52.7401
1.747200000e+08,-51.432
1.750933333e+08,-68.8725
1.754666667e+08,-70.2506
1.758400000e+08,-66.0839
1.762133333e+08,-67.0294
1.765866667e+08,-76.0153
1.769600000e+08,-52.5547
1.773333333e+08,-46.7757
1.777066667e+08,-58.5293
1.780800000e+08,-70.0132
1.784533333e+08,-67.6056
1.788266667e+08,-73.4688
1.792000000e+08,-71.7174
1.795733333e+08,-53.211
1.799466667e+08,-40.0238
1.803200000e+08,-44.9439
1.806933333e+08,-66.1454
1.810666667e+08,-66.3507
1.814400000e+08,-64.6073
1.818133333e+08,-70.6074
1.821866667e+08,-67.0134
1.825600000e+08,-46.848
1.829333333e+08,-48.218
1.833066667e+08,-65.6364
1.836800000e+08,-69.303
1.840533333e+08,-67.7209
1.844266667e+08,-67.0782
1.848000000e+08,-68.1706
1.851733333e+08,-52.4647
1.855466667e+08,-51.4124
1.859200000e+08,-63.1725
1.862933333e+08,-68.2001
1.866666667e+08,-68.2872
1.870400000e+08,-77.1407
1.874133333e+08,-64.6581
1.877866667e+08,-52.5336
1.881600000e+08,-47.5593
1.885333333e+08,-53.0292
1.889066667e+08,-64.0758
1.892800000e+08,-68.3806
1.896533333e+08,-66.6085
1.900266667e+08,-66.8083
1.904000000e+08,-67.3299
1.907733333e+08,-53.0377
1.911466667e+08,-55.5647
1.915200000e+08,-64.3417
1.918933333e+08,-53.9668
1.922666667e+08,-52.6042
1.926400000e+08,-63.4972
1.930133333e+08,-61.8093
1.933866667e+08,-48.6132
1.937600000e+08,-49.0243
1.941333333e+08,-60.487
1.945066667e+08,-66.7947
1.948800000e+08,-68.3088
1.952533333e+08,-64.3223
1.956266667e+08,-65.9396
1.960000000e+08,-54.8786
1.963733333e+08,-53.7486
1.967466667e+08,-58.728
1.971200000e+08,-65.2817
1.974933333e+08,-68.5799
1.978666667e+08,-72.9554
1.982400000e+08,-65.0771
1.986133333e+08,-57.4043
1.989866667e+08,-48.5817
1.993600000e+08,-48.578
1.997333333e+08,-60.1563
2.001066667e+08,-63.9248
2.004800000e+08,-65.308
2.008533333e+08,-64.3996
2.012266667e+08,-66.211
2.016000000e+08,-55.5483
2.019733333e+08,-53.5738
2.023466667e+08,-69.0296
2.027200000e+08,-67.9069
2.030933333e+08,-69.5243
2.034666667e+08,-64.4904
2.038400000e+08,-47.9309
2.042133333e+08,-49.7083
2.045866667e+08,-46.6436
2.049600000e+08,-54.6705
2.053333333e+08,-66.3432
2.057066667e+08,-71.5568
2.060800000e+08,-66.5432
2.064533333e+08,-67.0797
2.068266667e+08,-67.0042
2.072000000e+08,-52.4888
2.075733333e+08,-56.6037
2.079466667e+08,-66.9134
2.083200000e+08,-69.8956
2.086933333e+08,-67.6089
2.090666667e+08,-64.0836
2.094400000e+08,-61.4887
2.098133333e+08,-45.9358
2.101866667e+08,-46.0907
2.105600000e+08,-68.1914
2.109333333e+08,-67.0758
2.113066667e+08,-63.3002
2.116800000e+08,-66.7952
2.120533333e+08,-63.0605
2.124266667e+08,-55.1623
2.128000000e+08,-52.72
2.131733333e+08,-65.9325
2.135466667e+08,-63.1838
2.139200000e+08,-64.9242
2.142933333e+08,-66.8053
2.146666667e+08,-69.8719
2.150400000e+08,-55.0474
2.154133333e+08,-46.588
2.157866667e+08,-54.1037
2.161600000e+08,-58.8849
2.165333333e+08,-60.0976
2.169066667e+08,-73.1822
2.172800000e+08,-73.1239
2.176533333e+08,-65.5864
2.180266667e+08,-53.0231
2.184000000e+08,-54.0084
2.187733333e+08,-62.0459
2.191466667e+08,-71.885
2.195200000e+08,-62.934
2.198933333e+08,-61.3577
2.202666667e+08,-64.4091
2.206400000e+08,-47.3439
2.210133333e+08,-47.5989
2.213866667e+08,-56.7689
2.217600000e+08,-63.0604
2.221333333e+08,-61.1683
2.225066667e+08,-64.7853
2.228800000e+08,-67.352
2.232533333e+08,-56.3595
2.236266667e+08,-54.5911
2.240000000e+08,-58.4129
2.243733333e+08,-65.7509
2.247466667e+08,-68.9878
2.251200000e+08,-66.1718
2.254933333e+08,-61.1612
2.258666667e+08,-56.2845
2.262400000e+08,-48.5283
2.266133333e+08,-48.239
2.269866667e+08,-63.9343
2.273600000e+08,-61.7528
2.277333333e+08,-49.985
2.281066667e+08,-48.1658
2.284800000e+08,-63.4058
2.288533333e+08,-55.4097
2.292266667e+08,-54.0977
2.296000000e+08,-66.9401
2.299733333e+08,-66.7085
2.303466667e+08,-70.5606
2.307200000e+08,-66.3959
2.310933333e+08,-65.4013
2.314666667e+08,-52.4991
2.318400000e+08,-46.4759
2.322133333e+08,-51.8985
2.325866667e+08,-70.3457
2.329600000e+08,-67.0538
2.333333333e+08,-65.2683
2.337066667e+08,-70.9431
2.340800000e+08,-61.4944
2.344533333e+08,-53.0128
2.348266667e+08,-54.8281
2.352000000e+08,-69.6814
2.355733333e+08,-74.444
2.359466667e+08,-73.4989
2.363200000e+08,-74.7442
2.366933333e+08,-67.3817
2.370666667e+08,-47.2416
2.374400000e+08,-46.0752
2.378133333e+08,-73.0368
2.381866667e+08,-71.2772
2.385600000e+08,-71.6557
2.389333333e+08,-74.0152
2.393066667e+08,-72.9012
2.396800000e+08,-55.6421
2.400533333e+08,-52.8074
2.404266667e+08,-52.8755
2.408000000e+08,-72.6311
2.411733333e+08,-73.6276
2.415466667e+08,-70.166
2.419200000e+08,-69.812
2.422933333e+08,-58.4656
2.426666667e+08,-46.276
2.430400000e+08,-52.0971
2.434133333e+08,-68.953
2.437866667e+08,-72.7773
2.441600000e+08,-69.2477
2.445333333e+08,-68.5568
2.449066667e+08,-73.2391
2.452800000e+08,-52.585
2.456533333e+08,-54.0694
2.460266667e+08,-74.9322
2.464000000e+08,-72.0023
2.467733333e+08,-71.2863
2.471466667e+08,-66.5965
2.475200000e+08,-62.7028
2.478933333e+08,-48.0749
2.482666667e+08,-47.0053
2.486400000e+08,-55.7942
2.490133333e+08,-64.3258
2.493866667e+08,-69.7956
2.497600000e+08,-69.6357
2.501333333e+08,-69.7905
2.505066667e+08,-60.1779
2.508800000e+08,-54.5247
2.512533333e+08,-57.9779
2.516266667e+08,-56.2336
2.520000000e+08,-47.8611
2.523733333e+08,-56.9959
2.527466667e+08,-68.1837
2.531200000e+08,-60.5424
2.534933333e+08,-48.3926
2.538666667e+08,-49.5441
2.542400000e+08,-61.6639
2.546133333e+08,-66.9264
2.549866667e+08,-66.019
2.553600000e+08,-67.7421
2.557333333e+08,-67.3266
2.561066667e+08,-54.2493
2.564800000e+08,-53.9292
2.568533333e+08,-65.631
2.572266667e+08,-69.1296
2.576000000e+08,-70.7182
2.579733333e+08,-68.4486
2.583466667e+08,-64.7953
2.587200000e+08,-53.2549
2.590933333e+08,-49.2354
2.594666667e+08,-52.3934
2.598400000e+08,-63.1781
2.602133333e+08,-70.3319
2.605866667e+08,-76.6737
2.609600000e+08,-66.73
2.613333333e+08,-64.3288
2.617066667e+08,-54.2263
2.620800000e+08,-54.8699
2.624533333e+08,-67.3526
2.628266667e+08,-70.8627
2.632000000e+08,-72.8728
2.635733333e+08,-71.041
2.639466667e+08,-61.3271
2.643200000e+08,-49.8511
2.646933333e+08,-47.7477
2.650666667e+08,-64.4159
2.654400000e+08,-73.0053
2.658133333e+08,-64.8097
2.661866667e+08,-66.1517
2.665600000e+08,-69.0783
2.669333333e+08,-59.6851
2.673066667e+08,-53.5136
2.676800000e+08,-62.1684
2.680533333e+08,-70.9509
2.684266667e+08,-70.937
2.688000000e+08,-77.1978
2.691733333e+08,-76.2285
2.695466667e+08,-60.278
2.699200000e+08,-45.585
2.702933333e+08,-49.0939
2.706666667e+08,-75.587
2.710400000e+08,-67.2064
2.714133333e+08,-69.991
2.717866667e+08,-70.7031
2.721600000e+08,-72.0681
2.725333333e+08,-53.6214
2.729066667e+08,-53.638
2.732800000e+08,-69.5443
2.736533333e+08,-75.5758
2.740266667e+08,-74.775
2.744000000e+08,-71.6795
2.747733333e+08,-66.3115
2.751466667e+08,-50.2164
2.755200000e+08,-48.1156
2.758933333e+08,-44.9353
2.762666667e+08,-46.697
2.766400000e+08,-67.778
2.770133333e+08,-69.7924
2.773866667e+08,-66.0051
2.777600000e+08,-64.2333
2.781333333e+08,-55.2645
2.785066667e+08,-59.3486
2.788800000e+08,-68.8992
2.792533333e+08,-69.1539
2.796266667e+08,-70.3651
2.800000000e+08,-66.6139

