Model,MDO3104
Firmware Version,1.30

Waveform Type,RF_FD
Point Format,Y
Horizontal Units,Hz
Horizontal Scale,2.8e+07
,
Sample Interval,373333
Record Length,751
Gating,0.133155792277% to 100.0%
Probe Attenuation,1
Vertical Units,dBm
Vertical Offset,0
Vertical Scale,10
Vertical Position,0
Center Frequency,1.4e+08
Span,2.8e+08
Reference Level,-15
Label,
FREQUENCY,FD NORM
0.000000000e+00,-73.5462
3.733333333e+05,-81.8367
7.466666667e+05,-83.2815
1.120000000e+06,-74.6095
1.493333333e+06,-71.3286
1.866666667e+06,-69.2519
2.240000000e+06,-71.6076
2.613333333e+06,-65.247
2.986666667e+06,-68.2391
3.360000000e+06,-60.8685
3.733333333e+06,-63.7012
4.106666667e+06,-69.3882
4.480000000e+06,-68.239
4.853333333e+06,-68.9012
5.226666667e+06,-63.6607
5.600000000e+06,-69.4432
5.973333333e+06,-65.8076
6.346666667e+06,-69.402
6.720000000e+06,-73.9227
7.093333333e+06,-70.1901
7.466666667e+06,-68.0455
7.840000000e+06,-66.8098
8.213333333e+06,-67.5265
8.586666667e+06,-66.0272
8.960000000e+06,-72.096
9.333333333e+06,-71.3233
9.706666667e+06,-67.6586
1.008000000e+07,-65.1867
1.045333333e+07,-67.9584
1.082666667e+07,-67.964
1.120000000e+07,-70.6376
1.157333333e+07,-65.6382
1.194666667e+07,-56.6107
1.232000000e+07,-59.6685
1.269333333e+07,-69.4375
1.306666667e+07,-70.1571
1.344000000e+07,-65.4241
1.381333333e+07,-67.6753
1.418666667e+07,-73.8511
1.456000000e+07,-72.308
1.493333333e+07,-73.1854
1.530666667e+07,-70.3883
1.568000000e+07,-69.2683
1.605333333e+07,-70.4529
1.642666667e+07,-63.806
1.680000000e+07,-66.7029
1.717333333e+07,-67.7231
1.754666667e+07,-65.5646
1.792000000e+07,-59.3742
1.829333333e+07,-60.1767
1.866666667e+07,-63.3771
1.904000000e+07,-72.243
1.941333333e+07,-69.9201
1.978666667e+07,-69.0416
2.016000000e+07,-67.2386
2.053333333e+07,-66.9457
2.090666667e+07,-74.5596
2.128000000e+07,-72.4878
2.165333333e+07,-62.1605
2.202666667e+07,-61.2607
2.240000000e+07,-65.6668
2.277333333e+07,-66.2155
2.314666667e+07,-66.4346
2.352000000e+07,-65.9263
2.389333333e+07,-72.8829
2.426666667e+07,-69.7637
2.464000000e+07,-61.5471
2.501333333e+07,-52.9023
2.538666667e+07,-57.6168
2.576000000e+07,-68.476
2.613333333e+07,-64.7915
2.650666667e+07,-69.2002
2.688000000e+07,-59.2772
2.725333333e+07,-60.0968
2.762666667e+07,-61.1842
2.800000000e+07,-64.8712
2.837333333e+07,-70.4809
2.874666667e+07,-70.8354
2.912000000e+07,-69.2693
2.949333333e+07,-63.2193
2.986666667e+07,-53.8122
3.024000000e+07,-55.1115
3.061333333e+07,-61.7611
3.098666667e+07,-77.4753
3.136000000e+07,-67.7728
3.173333333e+07,-68.6707
3.210666667e+07,-66.249
3.248000000e+07,-66.0934
3.285333333e+07,-66.0309
3.322666667e+07,-70.6068
3.360000000e+07,-66.3264
3.397333333e+07,-80.0868
3.434666667e+07,-76.0485
3.472000000e+07,-75.0869
3.509333333e+07,-68.0011
3.546666667e+07,-56.5385
3.584000000e+07,-49.4302
3.621333333e+07,-50.0493
3.658666667e+07,-61.3717
3.696000000e+07,-67.0955
3.733333333e+07,-64.2365
3.770666667e+07,-62.0708
3.808000000e+07,-58.0778
3.845333333e+07,-67.7166
3.882666667e+07,-69.6037
3.920000000e+07,-64.6201
3.957333333e+07,-62.392
3.994666667e+07,-62.9912
4.032000000e+07,-65.6812
4.069333333e+07,-62.2468
4.106666667e+07,-58.7982
4.144000000e+07,-67.9969
4.181333333e+07,-58.7227
4.218666667e+07,-58.1259
4.256000000e+07,-62.4548
4.293333333e+07,-63.7551
4.330666667e+07,-55.2861
4.368000000e+07,-54.7354
4.405333333e+07,-57.1371
4.442666667e+07,-60.5779
4.480000000e+07,-62.4765
4.517333333e+07,-64.0571
4.554666667e+07,-60.8601
4.592000000e+07,-66.9871
4.629333333e+07,-67.1688
4.666666667e+07,-67.4317
4.704000000e+07,-63.5963
4.741333333e+07,-55.1286
4.778666667e+07,-40.4015
4.816000000e+07,-39.6107
4.853333333e+07,-52.455
4.890666667e+07,-65.4623
4.928000000e+07,-54.4053
4.965333333e+07,-53.1715
5.002666667e+07,-70.0682
5.040000000e+07,-55.4357
5.077333333e+07,-57.0028
5.114666667e+07,-56.1336
5.152000000e+07,-54.3287
5.189333333e+07,-48.9917
5.226666667e+07,-51.7775
5.264000000e+07,-55.4449
5.301333333e+07,-57.3758
5.338666667e+07,-57.4359
5.376000000e+07,-54.4969
5.413333333e+07,-53.5157
5.450666667e+07,-65.7909
5.488000000e+07,-57.5931
5.525333333e+07,-58.9964
5.562666667e+07,-56.2364
5.600000000e+07,-53.9476
5.637333333e+07,-55.8104
5.674666667e+07,-57.4413
5.712000000e+07,-60.1271
5.749333333e+07,-52.967
5.786666667e+07,-57.3217
5.824000000e+07,-58.0442
5.861333333e+07,-55.1459
5.898666667e+07,-59.6764
5.936000000e+07,-52.9784
5.973333333e+07,-40.9505
6.010666667e+07,-38.6759
6.048000000e+07,-49.7784
6.085333333e+07,-55.2528
6.122666667e+07,-54.5267
6.160000000e+07,-51.4422
6.197333333e+07,-61.9922
6.234666667e+07,-48.736
6.272000000e+07,-49.0669
6.309333333e+07,-49.7258
6.346666667e+07,-53.9453
6.384000000e+07,-50.0864
6.421333333e+07,-51.0016
6.458666667e+07,-52.5167
6.496000000e+07,-56.0445
6.533333333e+07,-48.1573
6.570666667e+07,-48.606
6.608000000e+07,-50.6668
6.645333333e+07,-53.8137
6.682666667e+07,-56.7461
6.720000000e+07,-56.7701
6.757333333e+07,-54.9555
6.794666667e+07,-54.557
6.832000000e+07,-59.5989
6.869333333e+07,-63.6959
6.906666667e+07,-59.8441
6.944000000e+07,-57.8135
6.981333333e+07,-62.0594
7.018666667e+07,-61.3364
7.056000000e+07,-56.0854
7.093333333e+07,-53.4454
7.130666667e+07,-57.7812
7.168000000e+07,-47.7888
7.205333333e+07,-43.1625
7.242666667e+07,-53.1793
7.280000000e+07,-65.3152
7.317333333e+07,-62.5414
7.354666667e+07,-56.6979
7.392000000e+07,-60.6534
7.429333333e+07,-63.7644
7.466666667e+07,-62.8289
7.504000000e+07,-60.9128
7.541333333e+07,-56.6052
7.578666667e+07,-58.9344
7.616000000e+07,-59.8682
7.653333333e+07,-55.4356
7.690666667e+07,-63.7934
7.728000000e+07,-59.1786
7.765333333e+07,-57.5487
7.802666667e+07,-52.862
7.840000000e+07,-60.8302
7.877333333e+07,-56.2041
7.914666667e+07,-54.7082
7.952000000e+07,-59.0061
7.989333333e+07,-56.3246
8.026666667e+07,-57.7144
8.064000000e+07,-59.3368
8.101333333e+07,-61.1989
8.138666667e+07,-61.7009
8.176000000e+07,-58.2412
8.213333333e+07,-58.8829
8.250666667e+07,-58.6503
8.288000000e+07,-65.7746
8.325333333e+07,-58.7741
8.362666667e+07,-51.9226
8.400000000e+07,-44.4467
8.437333333e+07,-50.5473
8.474666667e+07,-52.3286
8.512000000e+07,-64.0363
8.549333333e+07,-59.7805
8.586666667e+07,-65.4569
8.624000000e+07,-60.8731
8.661333333e+07,-59.3516
8.698666667e+07,-58.3468
8.736000000e+07,-61.6014
8.773333333e+07,-59.2675
8.810666667e+07,-58.0967
8.848000000e+07,-63.0172
8.885333333e+07,-67.4534
8.922666667e+07,-67.7696
8.960000000e+07,-65.3685
8.997333333e+07,-59.6083
9.034666667e+07,-64.1735
9.072000000e+07,-66.8959
9.109333333e+07,-74.403
9.146666667e+07,-62.7584
9.184000000e+07,-58.904
9.221333333e+07,-58.7541
9.258666667e+07,-53.3582
9.296000000e+07,-57.5775
9.333333333e+07,-63.4236
9.370666667e+07,-66.2625
9.408000000e+07,-68.2919
9.445333333e+07,-66.637
9.482666667e+07,-67.9508
9.520000000e+07,-53.705
9.557333333e+07,-51.1135
9.594666667e+07,-45.6352
9.632000000e+07,-49.8308
9.669333333e+07,-60.5785
9.706666667e+07,-63.1744
9.744000000e+07,-62.8611
9.781333333e+07,-55.4838
9.818666667e+07,-54.1147
9.856000000e+07,-57.0272
9.893333333e+07,-65.8023
9.930666667e+07,-59.9801
9.968000000e+07,-60.1238
1.000533333e+08,-60.5954
1.004266667e+08,-62.2252
1.008000000e+08,-51.0195
1.011733333e+08,-50.8009
1.015466667e+08,-64.8902
1.019200000e+08,-59.4183
1.022933333e+08,-61.0433
1.026666667e+08,-72.0801
1.030400000e+08,-64.0693
1.034133333e+08,-54.3718
1.037866667e+08,-55.6694
1.041600000e+08,-55.5003
1.045333333e+08,-62.0174
1.049066667e+08,-66.9901
1.052800000e+08,-64.2208
1.056533333e+08,-61.7191
1.060266667e+08,-61.2412
1.064000000e+08,-52.0998
1.067733333e+08,-55.6292
1.071466667e+08,-61.9701
1.075200000e+08,-59.784
1.078933333e+08,-45.5652
1.082666667e+08,-47.7279
1.086400000e+08,-60.412
1.090133333e+08,-53.1446
1.093866667e+08,-59.6575
1.097600000e+08,-66.2317
1.101333333e+08,-67.4723
1.105066667e+08,-65.0416
1.108800000e+08,-65.923
1.112533333e+08,-65.0682
1.116266667e+08,-58.6924
1.120000000e+08,-50.985
1.123733333e+08,-58.0617
1.127466667e+08,-65.7338
1.131200000e+08,-67.98
1.134933333e+08,-64.3585
1.138666667e+08,-64.3954
1.142400000e+08,-55.3515
1.146133333e+08,-52.4812
1.149866667e+08,-66.8928
1.153600000e+08,-70.4752
1.157333333e+08,-64.6498
1.161066667e+08,-63.5855
1.164800000e+08,-65.5184
1.168533333e+08,-55.276
1.172266667e+08,-53.2918
1.176000000e+08,-52.0822
1.179733333e+08,-59.7216
1.183466667e+08,-62.7762
1.187200000e+08,-63.1725
1.190933333e+08,-69.7035
1.194666667e+08,-69.5401
1.198400000e+08,-37.4284
1.202133333e+08,-38.2547
1.205866667e+08,-65.2082
1.209600000e+08,-71.9027
1.213333333e+08,-62.851
1.217066667e+08,-63.6282
1.220800000e+08,-60.9415
1.224533333e+08,-51.1563
1.228266667e+08,-52.6971
1.232000000e+08,-54.2806
1.235733333e+08,-65.0777
1.239466667e+08,-61.297
1.243200000e+08,-60.9917
1.246933333e+08,-61.2172
1.250666667e+08,-63.6806
1.254400000e+08,-51.4263
1.258133333e+08,-56.8745
1.261866667e+08,-59.7598
1.265600000e+08,-60.8738
1.269333333e+08,-69.4307
1.273066667e+08,-69.2651
1.276800000e+08,-56.273
1.280533333e+08,-49.6729
1.284266667e+08,-51.7726
1.288000000e+08,-56.5732
1.291733333e+08,-61.3514
1.295466667e+08,-61.2566
1.299200000e+08,-65.3791
1.302933333e+08,-60.2561
1.306666667e+08,-54.9311
1.310400000e+08,-51.4482
1.314133333e+08,-65.4411
1.317866667e+08,-45.8021
1.321600000e+08,-44.841
1.325333333e+08,-58.4298
1.329066667e+08,-63.211
1.332800000e+08,-53.7681
1.336533333e+08,-51.9382
1.340266667e+08,-57.0277
1.344000000e+08,-57.8848
1.347733333e+08,-58.5929
1.351466667e+08,-62.9812
1.355200000e+08,-59.091
1.358933333e+08,-59.0508
1.362666667e+08,-52.5355
1.366400000e+08,-51.8546
1.370133333e+08,-66.6769
1.373866667e+08,-70.0174
1.377600000e+08,-64.5587
1.381333333e+08,-66.122
1.385066667e+08,-67.8421
1.388800000e+08,-48.9936
1.392533333e+08,-50.6746
1.396266667e+08,-56.2601
1.400000000e+08,-58.5451
1.403733333e+08,-63.1101
1.407466667e+08,-62.112
1.411200000e+08,-62.2967
1.414933333e+08,-55.9229
1.418666667e+08,-53.545
1.422400000e+08,-55.7554
1.426133333e+08,-61.226
1.429866667e+08,-64.2938
1.433600000e+08,-62.6298
1.437333333e+08,-49.2984
1.441066667e+08,-46.1266
1.444800000e+08,-48.2648
1.448533333e+08,-55.7604
1.452266667e+08,-63.5672
1.456000000e+08,-70.4819
1.459733333e+08,-66.083
1.463466667e+08,-63.417
1.467200000e+08,-57.7448
1.470933333e+08,-53.4841
1.474666667e+08,-53.1331
1.478400000e+08,-61.9409
1.482133333e+08,-61.4314
1.485866667e+08,-72.3778
1.489600000e+08,-65.2106
1.493333333e+08,-68.9653
1.497066667e+08,-54.3466
1.500800000e+08,-50.6396
1.504533333e+08,-67.6211
1.508266667e+08,-67.1592
1.512000000e+08,-70.0829
1.515733333e+08,-65.1062
1.519466667e+08,-62.117
1.523200000e+08,-51.6772
1.526933333e+08,-50.9929
1.530666667e+08,-55.9036
1.534400000e+08,-65.3944
1.538133333e+08,-65.8259
1.541866667e+08,-66.3237
1.545600000e+08,-65.6259
1.549333333e+08,-63.3606
1.553066667e+08,-47.5956
1.556800000e+08,-46.7456
1.560533333e+08,-42.6214
1.564266667e+08,-53.223
1.568000000e+08,-58.8231
1.571733333e+08,-59.7068
1.575466667e+08,-56.1577
1.579200000e+08,-51.978
1.582933333e+08,-53.652
1.586666667e+08,-61.3735
1.590400000e+08,-64.3268
1.594133333e+08,-67.8962
1.597866667e+08,-60.1305
1.601600000e+08,-59.8316
1.605333333e+08,-55.8141
1.609066667e+08,-48.468
1.612800000e+08,-53.2306
1.616533333e+08,-64.6783
1.620266667e+08,-65.1264
1.624000000e+08,-66.8722
1.627733333e+08,-62.3454
1.631466667e+08,-60.1054
1.635200000e+08,-50.8735
1.638933333e+08,-57.9029
1.642666667e+08,-64.0648
1.646400000e+08,-62.7253
1.650133333e+08,-67.7425
1.653866667e+08,-61.1813
1.657600000e+08,-59.3172
1.661333333e+08,-56.0175
1.665066667e+08,-50.2038
1.668800000e+08,-58.4652
1.672533333e+08,-66.3805
1.676266667e+08,-59.1204
1.680000000e+08,-50.7951
1.683733333e+08,-57.8818
1.687466667e+08,-54.4211
1.691200000e+08,-52.0411
1.694933333e+08,-59.4933
1.698666667e+08,-61.8971
1.702400000e+08,-61.531
1.706133333e+08,-62.0864
1.709866667e+08,-62.2505
1.713600000e+08,-53.2264
1.717333333e+08,-49.5816
1.721066667e+08,-48.1246
1.724800000e+08,-60.5931
1.728533333e+08,-67.3202
1.732266667e+08,-66.8892
1.736000000e+08,-67.5853
1.739733333e+08,-66.2893
1.743466667e+08,-52.0305
1.747200000e+08,-52.7122
1.750933333e+08,-67.2445
1.754666667e+08,-65.4353
1.758400000e+08,-61.726
1.762133333e+08,-60.0779
1.765866667e+08,-61.0417
1.769600000e+08,-51.2065
1.773333333e+08,-49.5837
1.777066667e+08,-51.4983
1.780800000e+08,-64.266
1.784533333e+08,-61.0031
1.788266667e+08,-67.464
1.792000000e+08,-67.3735
1.795733333e+08,-61.3315
1.799466667e+08,-47.0815
1.803200000e+08,-52.0455
1.806933333e+08,-68.6968
1.810666667e+08,-76.3776
1.814400000e+08,-69.6278
1.818133333e+08,-64.8067
1.821866667e+08,-55.6937
1.825600000e+08,-50.7458
1.829333333e+08,-52.277
1.833066667e+08,-58.3968
1.836800000e+08,-59.2211
1.840533333e+08,-66.6037
1.844266667e+08,-69.3696
1.848000000e+08,-74.7331
1.851733333e+08,-58.027
1.855466667e+08,-52.0126
1.859200000e+08,-60.7563
1.862933333e+08,-69.4788
1.866666667e+08,-76.8217
1.870400000e+08,-69.3045
1.874133333e+08,-64.292
1.877866667e+08,-50.8193
1.881600000e+08,-48.812
1.885333333e+08,-54.3672
1.889066667e+08,-60.4527
1.892800000e+08,-63.7919
1.896533333e+08,-66.8179
1.900266667e+08,-64.5466
1.904000000e+08,-66.3793
1.907733333e+08,-53.3712
1.911466667e+08,-53.3875
1.915200000e+08,-61.4165
1.918933333e+08,-48.4591
1.922666667e+08,-48.558
1.926400000e+08,-59.2557
1.930133333e+08,-61.1888
1.933866667e+08,-46.8842
1.937600000e+08,-48.4462
1.941333333e+08,-55.1835
1.945066667e+08,-58.4168
1.948800000e+08,-60.7637
1.952533333e+08,-59.8228
1.956266667e+08,-59.2294
1.960000000e+08,-58.24
1.963733333e+08,-53.7914
1.967466667e+08,-56.0478
1.971200000e+08,-61.8155
1.974933333e+08,-69.6261
1.978666667e+08,-67.7737
1.982400000e+08,-69.6979
1.986133333e+08,-57.7922
1.989866667e+08,-47.0151
1.993600000e+08,-53.925
1.997333333e+08,-60.4524
2.001066667e+08,-59.6492
2.004800000e+08,-60.9576
2.008533333e+08,-61.929
2.012266667e+08,-59.7446
2.016000000e+08,-55.5096
2.019733333e+08,-54.5092
2.023466667e+08,-59.885
2.027200000e+08,-68.2704
2.030933333e+08,-68.3945
2.034666667e+08,-63.0829
2.038400000e+08,-45.0807
2.042133333e+08,-45.6718
2.045866667e+08,-48.9924
2.049600000e+08,-61.5628
2.053333333e+08,-62.9529
2.057066667e+08,-62.8644
2.060800000e+08,-63.1995
2.064533333e+08,-63.537
2.068266667e+08,-57.3144
2.072000000e+08,-55.0333
2.075733333e+08,-52.918
2.079466667e+08,-63.3678
2.083200000e+08,-64.8581
2.086933333e+08,-62.7992
2.090666667e+08,-66.6333
2.094400000e+08,-65.0374
2.098133333e+08,-47.1909
2.101866667e+08,-46.9428
2.105600000e+08,-61.0404
2.109333333e+08,-64.3742
2.113066667e+08,-63.1998
2.116800000e+08,-62.6997
2.120533333e+08,-65.329
2.124266667e+08,-53.4908
2.128000000e+08,-54.8132
2.131733333e+08,-55.3629
2.135466667e+08,-60.2023
2.139200000e+08,-66.0739
2.142933333e+08,-64.9836
2.146666667e+08,-62.5008
2.150400000e+08,-63.0172
2.154133333e+08,-47.2263
2.157866667e+08,-50.8553
2.161600000e+08,-49.2305
2.165333333e+08,-57.2766
2.169066667e+08,-64.72
2.172800000e+08,-63.1232
2.176533333e+08,-61.2186
2.180266667e+08,-53.8742
2.184000000e+08,-58.7972
2.187733333e+08,-58.4464
2.191466667e+08,-63.0075
2.195200000e+08,-65.3565
2.198933333e+08,-64.2642
2.202666667e+08,-58.4767
2.206400000e+08,-53.7254
2.210133333e+08,-47.7369
2.213866667e+08,-57.6644
2.217600000e+08,-70.36
2.221333333e+08,-66.6522
2.225066667e+08,-65.8697
2.228800000e+08,-68.7127
2.232533333e+08,-56.5188
2.236266667e+08,-53.6503
2.240000000e+08,-64.2148
2.243733333e+08,-63.5869
2.247466667e+08,-68.0483
2.251200000e+08,-62.748
2.254933333e+08,-61.2904
2.258666667e+08,-55.9476
2.262400000e+08,-48.9916
2.266133333e+08,-47.5198
2.269866667e+08,-62.2194
2.273600000e+08,-62.0903
2.277333333e+08,-50.3507
2.281066667e+08,-47.6627
2.284800000e+08,-62.0523
2.288533333e+08,-52.6617
2.292266667e+08,-53.5245
2.296000000e+08,-59.2363
2.299733333e+08,-63.185
2.303466667e+08,-59.5461
2.307200000e+08,-60.1029
2.310933333e+08,-59.5857
2.314666667e+08,-51.5494
2.318400000e+08,-48.171
2.322133333e+08,-49.8851
2.325866667e+08,-58.8932
2.329600000e+08,-63.746
2.333333333e+08,-68.6858
2.337066667e+08,-73.2536
2.340800000e+08,-66.1423
2.344533333e+08,-53.1583
2.348266667e+08,-58.2591
2.352000000e+08,-65.7346
2.355733333e+08,-71.2267
2.359466667e+08,-61.7215
2.363200000e+08,-62.8962
2.366933333e+08,-54.9875
2.370666667e+08,-50.5146
2.374400000e+08,-49.6879
2.378133333e+08,-55.5496
2.381866667e+08,-62.6751
2.385600000e+08,-66.1634
2.389333333e+08,-67.2714
2.393066667e+08,-67.5716
2.396800000e+08,-57.8692
2.400533333e+08,-47.2564
2.404266667e+08,-49.1276
2.408000000e+08,-61.5821
2.411733333e+08,-64.6912
2.415466667e+08,-61.1802
2.419200000e+08,-58.9939
2.422933333e+08,-52.4825
2.426666667e+08,-50.6666
2.430400000e+08,-51.4023
2.434133333e+08,-57.5291
2.437866667e+08,-64.2173
2.441600000e+08,-62.4002
2.445333333e+08,-67.9861
2.449066667e+08,-67.5622
2.452800000e+08,-54.6242
2.456533333e+08,-54.1371
2.460266667e+08,-68.7856
2.464000000e+08,-68.0744
2.467733333e+08,-69.0415
2.471466667e+08,-68.6666
2.475200000e+08,-59.0793
2.478933333e+08,-50.1312
2.482666667e+08,-51.5005
2.486400000e+08,-55.0084
2.490133333e+08,-59.1719
2.493866667e+08,-64.5393
2.497600000e+08,-63.3562
2.501333333e+08,-62.6664
2.505066667e+08,-62.7337
2.508800000e+08,-53.9707
2.512533333e+08,-56.5049
2.516266667e+08,-61.6927
2.520000000e+08,-52.6823
2.523733333e+08,-59.4246
2.527466667e+08,-62.3274
2.531200000e+08,-57.5481
2.534933333e+08,-47.3478
2.538666667e+08,-53.2843
2.542400000e+08,-57.8851
2.546133333e+08,-65.0846
2.549866667e+08,-61.5469
2.553600000e+08,-66.2714
2.557333333e+08,-61.3472
2.561066667e+08,-58.0004
2.564800000e+08,-56.0037
2.568533333e+08,-66.3422
2.572266667e+08,-69.2025
2.576000000e+08,-69.0255
2.579733333e+08,-71.0228
2.583466667e+08,-78.3552
2.587200000e+08,-51.6972
2.590933333e+08,-47.5836
2.594666667e+08,-59.9827
2.598400000e+08,-60.8384
2.602133333e+08,-64.8235
2.605866667e+08,-62.0665
2.609600000e+08,-64.1674
2.613333333e+08,-59.7644
2.617066667e+08,-56.105
2.620800000e+08,-54.3564
2.624533333e+08,-68.0929
2.628266667e+08,-70.2003
2.632000000e+08,-68.1453
2.635733333e+08,-63.2012
2.639466667e+08,-50.8373
2.643200000e+08,-47.9008
2.646933333e+08,-48.4441
2.650666667e+08,-61.5052
2.654400000e+08,-59.2447
2.658133333e+08,-61.2528
2.661866667e+08,-63.6411
2.665600000e+08,-62.3334
2.669333333e+08,-59.0309
2.673066667e+08,-58.3265
2.676800000e+08,-60.6513
2.680533333e+08,-63.5282
2.684266667e+08,-64.4626
2.688000000e+08,-67.5217
2.691733333e+08,-67.329
2.695466667e+08,-64.7413
2.699200000e+08,-47.0569
2.702933333e+08,-50.6471
2.706666667e+08,-66.0113
2.710400000e+08,-63.1856
2.714133333e+08,-64.6577
2.717866667e+08,-68.6847
2.721600000e+08,-63.6732
2.725333333e+08,-57.5524
2.729066667e+08,-57.4166
2.732800000e+08,-64.1752
2.736533333e+08,-64.3868
2.740266667e+08,-65.5074
2.744000000e+08,-62.1066
2.747733333e+08,-62.7897
2.751466667e+08,-56.0098
2.755200000e+08,-48.9932
2.758933333e+08,-50.3409
2.762666667e+08,-52.4185
2.766400000e+08,-66.0051
2.770133333e+08,-72.2569
2.773866667e+08,-67.0514
2.777600000e+08,-57.4707
2.781333333e+08,-54.3752
2.785066667e+08,-59.1264
2.788800000e+08,-65.9651
2.792533333e+08,-64.8523
2.796266667e+08,-61.7744
2.800000000e+08,-65.8881

