Model,MDO3104
Firmware Version,1.30

Waveform Type,RF_FD
Point Format,Y
Horizontal Units,Hz
Horizontal Scale,2.8e+07
,
Sample Interval,373333
Record Length,751
Gating,0.133155792277% to 100.0%
Probe Attenuation,1
Vertical Units,dBm
Vertical Offset,0
Vertical Scale,10
Vertical Position,0
Center Frequency,1.4e+08
Span,2.8e+08
Reference Level,-15
Label,
FREQUENCY,FD NORM
0.000000000e+00,-63.984
3.733333333e+05,-72.3985
7.466666667e+05,-77.3422
1.120000000e+06,-75.7222
1.493333333e+06,-75.2517
1.866666667e+06,-67.6836
2.240000000e+06,-74.2459
2.613333333e+06,-67.0838
2.986666667e+06,-69.6477
3.360000000e+06,-62.3286
3.733333333e+06,-64.3907
4.106666667e+06,-72.2
4.480000000e+06,-69.5946
4.853333333e+06,-72.0182
5.226666667e+06,-66.5624
5.600000000e+06,-73.4632
5.973333333e+06,-68.4962
6.346666667e+06,-73.8354
6.720000000e+06,-72.2019
7.093333333e+06,-71.76
7.466666667e+06,-76.7928
7.840000000e+06,-70.7318
8.213333333e+06,-69.2301
8.586666667e+06,-70.5883
8.960000000e+06,-68.513
9.333333333e+06,-70.1786
9.706666667e+06,-68.9304
1.008000000e+07,-75.8277
1.045333333e+07,-70.2916
1.082666667e+07,-71.0056
1.120000000e+07,-70.6899
1.157333333e+07,-71.1387
1.194666667e+07,-63.9212
1.232000000e+07,-71.4924
1.269333333e+07,-70.4769
1.306666667e+07,-70.9556
1.344000000e+07,-68.5152
1.381333333e+07,-70.8497
1.418666667e+07,-68.9488
1.456000000e+07,-68.758
1.493333333e+07,-66.702
1.530666667e+07,-64.9785
1.568000000e+07,-73.3243
1.605333333e+07,-64.2921
1.642666667e+07,-61.5794
1.680000000e+07,-64.2753
1.717333333e+07,-73.155
1.754666667e+07,-73.2814
1.792000000e+07,-56.0612
1.829333333e+07,-58.3785
1.866666667e+07,-73.4667
1.904000000e+07,-71.1282
1.941333333e+07,-69.1392
1.978666667e+07,-69.9424
2.016000000e+07,-68.9744
2.053333333e+07,-71.2143
2.090666667e+07,-71.739
2.128000000e+07,-73.9792
2.165333333e+07,-70.753
2.202666667e+07,-67.1696
2.240000000e+07,-66.5607
2.277333333e+07,-70.3335
2.314666667e+07,-69.2719
2.352000000e+07,-74.564
2.389333333e+07,-62.2976
2.426666667e+07,-60.4985
2.464000000e+07,-58.0335
2.501333333e+07,-52.3081
2.538666667e+07,-64.8044
2.576000000e+07,-67.8252
2.613333333e+07,-64.7424
2.650666667e+07,-66.5014
2.688000000e+07,-63.0383
2.725333333e+07,-60.0406
2.762666667e+07,-68.3272
2.800000000e+07,-71.5286
2.837333333e+07,-70.7147
2.874666667e+07,-74.1555
2.912000000e+07,-75.5442
2.949333333e+07,-72.9642
2.986666667e+07,-50.7255
3.024000000e+07,-52.2657
3.061333333e+07,-76.7042
3.098666667e+07,-75.5007
3.136000000e+07,-70.8458
3.173333333e+07,-78.5611
3.210666667e+07,-75.556
3.248000000e+07,-61.1806
3.285333333e+07,-59.7055
3.322666667e+07,-77.6384
3.360000000e+07,-84.8357
3.397333333e+07,-82.6313
3.434666667e+07,-79.1299
3.472000000e+07,-75.9279
3.509333333e+07,-62.9033
3.546666667e+07,-58.2046
3.584000000e+07,-47.0263
3.621333333e+07,-47.9151
3.658666667e+07,-70.1151
3.696000000e+07,-74.2891
3.733333333e+07,-72.1745
3.770666667e+07,-75.9091
3.808000000e+07,-59.1487
3.845333333e+07,-62.0605
3.882666667e+07,-76.0079
3.920000000e+07,-74.6682
3.957333333e+07,-71.7853
3.994666667e+07,-74.556
4.032000000e+07,-69.5134
4.069333333e+07,-58.8453
4.106666667e+07,-59.8119
4.144000000e+07,-71.5525
4.181333333e+07,-53.1206
4.218666667e+07,-53.4451
4.256000000e+07,-74.7794
4.293333333e+07,-71.6834
4.330666667e+07,-61.8716
4.368000000e+07,-60.4092
4.405333333e+07,-63.7832
4.442666667e+07,-76.511
4.480000000e+07,-72.2624
4.517333333e+07,-83.9915
4.554666667e+07,-69.8917
4.592000000e+07,-62.7627
4.629333333e+07,-56.6367
4.666666667e+07,-57.1569
4.704000000e+07,-69.1894
4.741333333e+07,-67.8662
4.778666667e+07,-38.2591
4.816000000e+07,-37.4854
4.853333333e+07,-65.8395
4.890666667e+07,-58.4163
4.928000000e+07,-57.8437
4.965333333e+07,-70.9725
5.002666667e+07,-74.1998
5.040000000e+07,-75.3941
5.077333333e+07,-74.5127
5.114666667e+07,-71.0806
5.152000000e+07,-58.3028
5.189333333e+07,-54.712
5.226666667e+07,-67.6006
5.264000000e+07,-71.5899
5.301333333e+07,-68.9697
5.338666667e+07,-67.6459
5.376000000e+07,-49.787
5.413333333e+07,-48.4311
5.450666667e+07,-55.2939
5.488000000e+07,-57.4247
5.525333333e+07,-77.2385
5.562666667e+07,-77.1957
5.600000000e+07,-78.7043
5.637333333e+07,-75.0607
5.674666667e+07,-72.1714
5.712000000e+07,-53.1164
5.749333333e+07,-53.3607
5.786666667e+07,-75.3954
5.824000000e+07,-76.6263
5.861333333e+07,-78.0246
5.898666667e+07,-75.0055
5.936000000e+07,-73.6578
5.973333333e+07,-38.6148
6.010666667e+07,-36.452
6.048000000e+07,-55.2819
6.085333333e+07,-67.8024
6.122666667e+07,-70.3162
6.160000000e+07,-80.8368
6.197333333e+07,-76.1711
6.234666667e+07,-59.2958
6.272000000e+07,-52.2456
6.309333333e+07,-59.182
6.346666667e+07,-70.3359
6.384000000e+07,-73.0965
6.421333333e+07,-77.3756
6.458666667e+07,-75.8506
6.496000000e+07,-67.9179
6.533333333e+07,-53.1938
6.570666667e+07,-49.5412
6.608000000e+07,-46.5718
6.645333333e+07,-62.663
6.682666667e+07,-70.6773
6.720000000e+07,-74.2842
6.757333333e+07,-68.2541
6.794666667e+07,-56.1675
6.832000000e+07,-56.7214
6.869333333e+07,-65.8151
6.906666667e+07,-65.1827
6.944000000e+07,-69.1383
6.981333333e+07,-66.063
7.018666667e+07,-63.9314
7.056000000e+07,-58.2367
7.093333333e+07,-56.0879
7.130666667e+07,-63.6704
7.168000000e+07,-46.3389
7.205333333e+07,-41.2725
7.242666667e+07,-53.9769
7.280000000e+07,-70.7381
7.317333333e+07,-62.7664
7.354666667e+07,-56.7188
7.392000000e+07,-57.9668
7.429333333e+07,-68.4769
7.466666667e+07,-65.7722
7.504000000e+07,-65.8625
7.541333333e+07,-67.6023
7.578666667e+07,-63.8648
7.616000000e+07,-56.9945
7.653333333e+07,-56.3495
7.690666667e+07,-64.1308
7.728000000e+07,-70.1768
7.765333333e+07,-55.9225
7.802666667e+07,-48.719
7.840000000e+07,-61.4153
7.877333333e+07,-58.8817
7.914666667e+07,-54.1566
7.952000000e+07,-60.9916
7.989333333e+07,-71.6311
8.026666667e+07,-70.7462
8.064000000e+07,-72.8538
8.101333333e+07,-68.7285
8.138666667e+07,-61.5838
8.176000000e+07,-52.8817
8.213333333e+07,-54.293
8.250666667e+07,-71.4509
8.288000000e+07,-64.9687
8.325333333e+07,-67.7491
8.362666667e+07,-48.565
8.400000000e+07,-40.1072
8.437333333e+07,-47.1565
8.474666667e+07,-53.0497
8.512000000e+07,-71.8799
8.549333333e+07,-75.4349
8.586666667e+07,-77.7583
8.624000000e+07,-71.5448
8.661333333e+07,-75.4258
8.698666667e+07,-55.0089
8.736000000e+07,-51.7502
8.773333333e+07,-66.0693
8.810666667e+07,-71.6002
8.848000000e+07,-70.0409
8.885333333e+07,-68.3529
8.922666667e+07,-70.9072
8.960000000e+07,-58.8766
8.997333333e+07,-49.0686
9.034666667e+07,-56.6543
9.072000000e+07,-66.9387
9.109333333e+07,-73.7119
9.146666667e+07,-71.9299
9.184000000e+07,-74.0641
9.221333333e+07,-70.4764
9.258666667e+07,-53.4826
9.296000000e+07,-55.1684
9.333333333e+07,-70.4412
9.370666667e+07,-69.3596
9.408000000e+07,-70.3115
9.445333333e+07,-68.6134
9.482666667e+07,-71.8222
9.520000000e+07,-52.7061
9.557333333e+07,-52.128
9.594666667e+07,-49.3166
9.632000000e+07,-57.5541
9.669333333e+07,-64.035
9.706666667e+07,-66.6185
9.744000000e+07,-70.5526
9.781333333e+07,-58.2658
9.818666667e+07,-53.7637
9.856000000e+07,-59.5136
9.893333333e+07,-67.9591
9.930666667e+07,-74.1656
9.968000000e+07,-72.4864
1.000533333e+08,-65.76
1.004266667e+08,-64.8531
1.008000000e+08,-52.1029
1.011733333e+08,-54.4255
1.015466667e+08,-65.6252
1.019200000e+08,-54.4139
1.022933333e+08,-58.9065
1.026666667e+08,-64.2357
1.030400000e+08,-66.2548
1.034133333e+08,-55.3071
1.037866667e+08,-55.5894
1.041600000e+08,-64.1775
1.045333333e+08,-64.6837
1.049066667e+08,-70.0875
1.052800000e+08,-66.9391
1.056533333e+08,-72.1126
1.060266667e+08,-54.8482
1.064000000e+08,-52.0101
1.067733333e+08,-55.9304
1.071466667e+08,-63.2493
1.075200000e+08,-64.3377
1.078933333e+08,-43.6486
1.082666667e+08,-46.6082
1.086400000e+08,-59.849
1.090133333e+08,-53.9203
1.093866667e+08,-55.0327
1.097600000e+08,-66.5197
1.101333333e+08,-71.8517
1.105066667e+08,-77.4073
1.108800000e+08,-69.01
1.112533333e+08,-72.4038
1.116266667e+08,-51.8341
1.120000000e+08,-50.3191
1.123733333e+08,-70.1311
1.127466667e+08,-67.0114
1.131200000e+08,-67.8827
1.134933333e+08,-68.1723
1.138666667e+08,-60.4242
1.142400000e+08,-57.9206
1.146133333e+08,-52.7237
1.149866667e+08,-61.5678
1.153600000e+08,-73.4614
1.157333333e+08,-71.3024
1.161066667e+08,-70.9276
1.164800000e+08,-70.8223
1.168533333e+08,-62.3607
1.172266667e+08,-49.4853
1.176000000e+08,-53.2869
1.179733333e+08,-71.9291
1.183466667e+08,-68.0396
1.187200000e+08,-69.6054
1.190933333e+08,-70.6889
1.194666667e+08,-60.2222
1.198400000e+08,-36.3272
1.202133333e+08,-37.0627
1.205866667e+08,-66.4282
1.209600000e+08,-75.7599
1.213333333e+08,-68.652
1.217066667e+08,-79.0114
1.220800000e+08,-69.3704
1.224533333e+08,-50.5988
1.228266667e+08,-48.7704
1.232000000e+08,-63.6929
1.235733333e+08,-68.1505
1.239466667e+08,-72.4776
1.243200000e+08,-66.4643
1.246933333e+08,-72.6921
1.250666667e+08,-56.9884
1.254400000e+08,-51.0441
1.258133333e+08,-55.0479
1.261866667e+08,-54.7843
1.265600000e+08,-67.1294
1.269333333e+08,-66.0933
1.273066667e+08,-65.3974
1.276800000e+08,-65.3373
1.280533333e+08,-49.3819
1.284266667e+08,-51.3426
1.288000000e+08,-67.5452
1.291733333e+08,-66.2248
1.295466667e+08,-66.1769
1.299200000e+08,-67.2435
1.302933333e+08,-64.5088
1.306666667e+08,-52.0475
1.310400000e+08,-52.5677
1.314133333e+08,-63.8343
1.317866667e+08,-60.6473
1.321600000e+08,-62.9618
1.325333333e+08,-63.0653
1.329066667e+08,-66.5071
1.332800000e+08,-53.3839
1.336533333e+08,-51.2987
1.340266667e+08,-54.3965
1.344000000e+08,-66.2831
1.347733333e+08,-66.4683
1.351466667e+08,-64.1463
1.355200000e+08,-65.7464
1.358933333e+08,-59.0327
1.362666667e+08,-53.9285
1.366400000e+08,-54.5463
1.370133333e+08,-70.6875
1.373866667e+08,-68.7521
1.377600000e+08,-69.0114
1.381333333e+08,-67.342
1.385066667e+08,-66.3363
1.388800000e+08,-51.2422
1.392533333e+08,-49.6767
1.396266667e+08,-61.312
1.400000000e+08,-67.5749
1.403733333e+08,-69.5684
1.407466667e+08,-67.8447
1.411200000e+08,-62.4119
1.414933333e+08,-55.768
1.418666667e+08,-52.3164
1.422400000e+08,-62.8096
1.426133333e+08,-73.5865
1.429866667e+08,-75.2562
1.433600000e+08,-68.2916
1.437333333e+08,-48.1048
1.441066667e+08,-45.796
1.444800000e+08,-48.7976
1.448533333e+08,-50.7318
1.452266667e+08,-72.5409
1.456000000e+08,-68.5899
1.459733333e+08,-76.3598
1.463466667e+08,-74.7977
1.467200000e+08,-76.4015
1.470933333e+08,-52.1718
1.474666667e+08,-51.5637
1.478400000e+08,-72.9082
1.482133333e+08,-73.6118
1.485866667e+08,-69.0881
1.489600000e+08,-70.666
1.493333333e+08,-71.1628
1.497066667e+08,-52.3579
1.500800000e+08,-48.9711
1.504533333e+08,-62.6975
1.508266667e+08,-69.7512
1.512000000e+08,-70.7447
1.515733333e+08,-73.2071
1.519466667e+08,-70.3634
1.523200000e+08,-56.8441
1.526933333e+08,-50.0849
1.530666667e+08,-58.2283
1.534400000e+08,-71.6167
1.538133333e+08,-71.9875
1.541866667e+08,-72.6159
1.545600000e+08,-74.1827
1.549333333e+08,-68.6765
1.553066667e+08,-48.2192
1.556800000e+08,-46.8359
1.560533333e+08,-42.9537
1.564266667e+08,-55.4215
1.568000000e+08,-70.2893
1.571733333e+08,-67.1652
1.575466667e+08,-64.8922
1.579200000e+08,-51.5304
1.582933333e+08,-50.9424
1.586666667e+08,-60.8371
1.590400000e+08,-68.3366
1.594133333e+08,-69.9758
1.597866667e+08,-66.6068
1.601600000e+08,-62.6498
1.605333333e+08,-51.8204
1.609066667e+08,-48.6401
1.612800000e+08,-52.4624
1.616533333e+08,-61.5115
1.620266667e+08,-60.1143
1.624000000e+08,-70.2335
1.627733333e+08,-66.0254
1.631466667e+08,-62.4218
1.635200000e+08,-52.803
1.638933333e+08,-55.5626
1.642666667e+08,-63.9804
1.646400000e+08,-62.9093
1.650133333e+08,-62.9537
1.653866667e+08,-64.6623
1.657600000e+08,-61.675
1.661333333e+08,-50.2276
1.665066667e+08,-49.7579
1.668800000e+08,-63.1521
1.672533333e+08,-62.99
1.676266667e+08,-56.0734
1.680000000e+08,-47.1244
1.683733333e+08,-54.05
1.687466667e+08,-56.2491
1.691200000e+08,-52.6839
1.694933333e+08,-57.5211
1.698666667e+08,-68.6832
1.702400000e+08,-65.2259
1.706133333e+08,-71.7885
1.709866667e+08,-63.4758
1.713600000e+08,-58.8909
1.717333333e+08,-48.6107
1.721066667e+08,-49.6694
1.724800000e+08,-62.2716
1.728533333e+08,-62.7171
1.732266667e+08,-67.7793
1.736000000e+08,-65.3961
1.739733333e+08,-60.9332
1.743466667e+08,-52.3499
1.747200000e+08,-51.4612
1.750933333e+08,-69.8675
1.754666667e+08,-68.2355
1.758400000e+08,-69.0086
1.762133333e+08,-67.1105
1.765866667e+08,-69.3551
1.769600000e+08,-51.9103
1.773333333e+08,-46.9975
1.777066667e+08,-60.3596
1.780800000e+08,-72.1285
1.784533333e+08,-78.1535
1.788266667e+08,-69.8377
1.792000000e+08,-69.3588
1.795733333e+08,-51.9644
1.799466667e+08,-39.7849
1.803200000e+08,-44.9718
1.806933333e+08,-67.8944
1.810666667e+08,-68.2083
1.814400000e+08,-68.5668
1.818133333e+08,-67.2319
1.821866667e+08,-68.0976
1.825600000e+08,-46.1619
1.829333333e+08,-47.2271
1.833066667e+08,-69.5069
1.836800000e+08,-66.0641
1.840533333e+08,-69.0833
1.844266667e+08,-69.0331
1.848000000e+08,-74.35
1.851733333e+08,-53.548
1.855466667e+08,-51.811
1.859200000e+08,-61.153
1.862933333e+08,-67.3989
1.866666667e+08,-70.0716
1.870400000e+08,-71.0268
1.874133333e+08,-62.8583
1.877866667e+08,-52.9893
1.881600000e+08,-47.234
1.885333333e+08,-53.3088
1.889066667e+08,-67.4332
1.892800000e+08,-67.0922
1.896533333e+08,-65.1255
1.900266667e+08,-67.5921
1.904000000e+08,-63.8843
1.907733333e+08,-52.8101
1.911466667e+08,-54.9203
1.915200000e+08,-63.1759
1.918933333e+08,-47.9909
1.922666667e+08,-49.298
1.926400000e+08,-62.8773
1.930133333e+08,-63.6212
1.933866667e+08,-48.2406
1.937600000e+08,-47.9039
1.941333333e+08,-55.4487
1.945066667e+08,-64.386
1.948800000e+08,-68.3401
1.952533333e+08,-64.8994
1.956266667e+08,-60.5649
1.960000000e+08,-58.0189
1.963733333e+08,-53.9792
1.967466667e+08,-55.9509
1.971200000e+08,-67.1684
1.974933333e+08,-67.3942
1.978666667e+08,-65.5571
1.982400000e+08,-63.9948
1.986133333e+08,-58.8352
1.989866667e+08,-48.5807
1.993600000e+08,-48.5817
1.997333333e+08,-62.9226
2.001066667e+08,-64.1413
2.004800000e+08,-66.2372
2.008533333e+08,-66.651
2.012266667e+08,-67.305
2.016000000e+08,-53.5321
2.019733333e+08,-52.3686
2.023466667e+08,-66.1948
2.027200000e+08,-65.5616
2.030933333e+08,-71.5767
2.034666667e+08,-66.9873
2.038400000e+08,-47.8393
2.042133333e+08,-48.9001
2.045866667e+08,-46.8794
2.049600000e+08,-57.2273
2.053333333e+08,-64.316
2.057066667e+08,-71.5403
2.060800000e+08,-75.3032
2.064533333e+08,-73.2247
2.068266667e+08,-62.1981
2.072000000e+08,-51.1703
2.075733333e+08,-53.499
2.079466667e+08,-73.391
2.083200000e+08,-67.9472
2.086933333e+08,-66.0169
2.090666667e+08,-64.6594
2.094400000e+08,-69.8129
2.098133333e+08,-46.9019
2.101866667e+08,-46.7971
2.105600000e+08,-62.7482
2.109333333e+08,-68.0942
2.113066667e+08,-61.1672
2.116800000e+08,-62.7425
2.120533333e+08,-65.1903
2.124266667e+08,-55.6956
2.128000000e+08,-53.0824
2.131733333e+08,-60.6802
2.135466667e+08,-71.102
2.139200000e+08,-73.5801
2.142933333e+08,-78.1322
2.146666667e+08,-70.108
2.150400000e+08,-52.9239
2.154133333e+08,-45.8059
2.157866667e+08,-49.0629
2.161600000e+08,-49.1329
2.165333333e+08,-58.8942
2.169066667e+08,-64.2518
2.172800000e+08,-61.8907
2.176533333e+08,-64.3806
2.180266667e+08,-51.6245
2.184000000e+08,-55.5591
2.187733333e+08,-69.7597
2.191466667e+08,-73.6308
2.195200000e+08,-67.123
2.198933333e+08,-65.8284
2.202666667e+08,-65.4695
2.206400000e+08,-47.9253
2.210133333e+08,-47.7069
2.213866667e+08,-56.5358
2.217600000e+08,-62.7602
2.221333333e+08,-66.691
2.225066667e+08,-65.3552
2.228800000e+08,-63.2062
2.232533333e+08,-56.7207
2.236266667e+08,-53.413
2.240000000e+08,-56.1115
2.243733333e+08,-66.541
2.247466667e+08,-69.436
2.251200000e+08,-67.2121
2.254933333e+08,-64.9376
2.258666667e+08,-55.6484
2.262400000e+08,-48.3178
2.266133333e+08,-48.2613
2.269866667e+08,-62.5614
2.273600000e+08,-66.2573
2.277333333e+08,-55.0417
2.281066667e+08,-53.3397
2.284800000e+08,-72.7492
2.288533333e+08,-56.0962
2.292266667e+08,-54.124
2.296000000e+08,-67.3545
2.299733333e+08,-67.7463
2.303466667e+08,-70.6263
2.307200000e+08,-70.1748
2.310933333e+08,-63.1956
2.314666667e+08,-51.5999
2.318400000e+08,-46.5879
2.322133333e+08,-53.0354
2.325866667e+08,-71.2074
2.329600000e+08,-67.731
2.333333333e+08,-70.4875
2.337066667e+08,-65.5899
2.340800000e+08,-62.3078
2.344533333e+08,-51.696
2.348266667e+08,-53.0026
2.352000000e+08,-73.0769
2.355733333e+08,-71.2293
2.359466667e+08,-70.6578
2.363200000e+08,-73.0377
2.366933333e+08,-70.3136
2.370666667e+08,-47.2565
2.374400000e+08,-46.0031
2.378133333e+08,-76.093
2.381866667e+08,-73.6069
2.385600000e+08,-71.0421
2.389333333e+08,-72.055
2.393066667e+08,-72.7526
2.396800000e+08,-58.6138
2.400533333e+08,-48.6519
2.404266667e+08,-49.8172
2.408000000e+08,-74.1642
2.411733333e+08,-72.7229
2.415466667e+08,-67.5411
2.419200000e+08,-67.4218
2.422933333e+08,-57.6142
2.426666667e+08,-46.2433
2.430400000e+08,-51.6389
2.434133333e+08,-70.9183
2.437866667e+08,-75.202
2.441600000e+08,-71.8719
2.445333333e+08,-73.0572
2.449066667e+08,-71.9854
2.452800000e+08,-52.0226
2.456533333e+08,-53.3591
2.460266667e+08,-70.6052
2.464000000e+08,-69.4497
2.467733333e+08,-66.911
2.471466667e+08,-72.6734
2.475200000e+08,-63.6338
2.478933333e+08,-47.9155
2.482666667e+08,-46.9032
2.486400000e+08,-56.6633
2.490133333e+08,-67.4483
2.493866667e+08,-71.8742
2.497600000e+08,-69.0134
2.501333333e+08,-69.8301
2.505066667e+08,-59.8235
2.508800000e+08,-54.1761
2.512533333e+08,-58.5878
2.516266667e+08,-51.1616
2.520000000e+08,-42.9446
2.523733333e+08,-51.6046
2.527466667e+08,-65.542
2.531200000e+08,-62.7522
2.534933333e+08,-48.5684
2.538666667e+08,-49.1709
2.542400000e+08,-66.3224
2.546133333e+08,-63.2051
2.549866667e+08,-64.657
2.553600000e+08,-63.0807
2.557333333e+08,-65.8725
2.561066667e+08,-54.7632
2.564800000e+08,-54.4558
2.568533333e+08,-65.3208
2.572266667e+08,-70.5429
2.576000000e+08,-67.6134
2.579733333e+08,-61.9684
2.583466667e+08,-63.293
2.587200000e+08,-51.9061
2.590933333e+08,-48.7858
2.594666667e+08,-52.2215
2.598400000e+08,-65.4625
2.602133333e+08,-66.9376
2.605866667e+08,-71.2994
2.609600000e+08,-64.7355
2.613333333e+08,-63.2736
2.617066667e+08,-54.7419
2.620800000e+08,-55.3949
2.624533333e+08,-68.9082
2.628266667e+08,-76.7156
2.632000000e+08,-64.4831
2.635733333e+08,-60.9801
2.639466667e+08,-46.4995
2.643200000e+08,-50.794
2.646933333e+08,-48.2082
2.650666667e+08,-67.8159
2.654400000e+08,-67.7695
2.658133333e+08,-67.6619
2.661866667e+08,-67.6153
2.665600000e+08,-71.767
2.669333333e+08,-61.244
2.673066667e+08,-53.9342
2.676800000e+08,-63.4006
2.680533333e+08,-76.8644
2.684266667e+08,-78.2409
2.688000000e+08,-74.5652
2.691733333e+08,-72.5758
2.695466667e+08,-61.4746
2.699200000e+08,-46.5405
2.702933333e+08,-50.1341
2.706666667e+08,-71.8857
2.710400000e+08,-72.7882
2.714133333e+08,-69.8055
2.717866667e+08,-72.1567
2.721600000e+08,-73.1835
2.725333333e+08,-53.6323
2.729066667e+08,-54.2463
2.732800000e+08,-73.1169
2.736533333e+08,-75.5112
2.740266667e+08,-71.7512
2.744000000e+08,-73.4646
2.747733333e+08,-69.0815
2.751466667e+08,-50.8295
2.755200000e+08,-48.5186
2.758933333e+08,-43.0123
2.762666667e+08,-45.7164
2.766400000e+08,-66.8274
2.770133333e+08,-71.1872
2.773866667e+08,-70.1885
2.777600000e+08,-62.4137
2.781333333e+08,-54.6178
2.785066667e+08,-59.3532
2.788800000e+08,-72.6438
2.792533333e+08,-63.8239
2.796266667e+08,-65.2968
2.800000000e+08,-66.287

