Model,MDO3104
Firmware Version,1.30

Waveform Type,RF_FD
Point Format,Y
Horizontal Units,Hz
Horizontal Scale,2.8e+07
,
Sample Interval,373333
Record Length,751
Gating,0.133155792277% to 100.0%
Probe Attenuation,1
Vertical Units,dBm
Vertical Offset,0
Vertical Scale,10
Vertical Position,0
Center Frequency,1.4e+08
Span,2.8e+08
Reference Level,-15
Label,
FREQUENCY,FD NORM
0.000000000e+00,-59.6302
3.733333333e+05,-68.4876
7.466666667e+05,-77.7545
1.120000000e+06,-79.3945
1.493333333e+06,-68.8767
1.866666667e+06,-68.5623
2.240000000e+06,-74.5418
2.613333333e+06,-69.4319
2.986666667e+06,-70.6184
3.360000000e+06,-60.056
3.733333333e+06,-61.7461
4.106666667e+06,-64.7457
4.480000000e+06,-62.5757
4.853333333e+06,-70.9445
5.226666667e+06,-71.0665
5.600000000e+06,-65.2708
5.973333333e+06,-61.8664
6.346666667e+06,-70.6043
6.720000000e+06,-74.8312
7.093333333e+06,-73.3658
7.466666667e+06,-73.7622
7.840000000e+06,-70.4969
8.213333333e+06,-72.9431
8.586666667e+06,-71.3431
8.960000000e+06,-71.8455
9.333333333e+06,-75.7667
9.706666667e+06,-69.0552
1.008000000e+07,-64.3449
1.045333333e+07,-73.3678
1.082666667e+07,-70.0154
1.120000000e+07,-70.7472
1.157333333e+07,-73.0174
1.194666667e+07,-58.3768
1.232000000e+07,-61.4703
1.269333333e+07,-77.282
1.306666667e+07,-64.2478
1.344000000e+07,-62.0391
1.381333333e+07,-65.9035
1.418666667e+07,-66.227
1.456000000e+07,-73.9286
1.493333333e+07,-66.9083
1.530666667e+07,-66.9882
1.568000000e+07,-72.0741
1.605333333e+07,-61.0664
1.642666667e+07,-63.8183
1.680000000e+07,-64.8516
1.717333333e+07,-64.8982
1.754666667e+07,-68.3545
1.792000000e+07,-55.6762
1.829333333e+07,-59.9407
1.866666667e+07,-67.9951
1.904000000e+07,-67.7026
1.941333333e+07,-68.1543
1.978666667e+07,-66.6933
2.016000000e+07,-67.0971
2.053333333e+07,-72.0599
2.090666667e+07,-68.5165
2.128000000e+07,-71.4568
2.165333333e+07,-68.2906
2.202666667e+07,-67.5325
2.240000000e+07,-68.1629
2.277333333e+07,-73.1076
2.314666667e+07,-74.7547
2.352000000e+07,-68.5744
2.389333333e+07,-63.6376
2.426666667e+07,-66.2443
2.464000000e+07,-63.5483
2.501333333e+07,-52.7347
2.538666667e+07,-59.6851
2.576000000e+07,-70.5572
2.613333333e+07,-64.0018
2.650666667e+07,-67.2652
2.688000000e+07,-68.8958
2.725333333e+07,-61.4889
2.762666667e+07,-64.2877
2.800000000e+07,-77.798
2.837333333e+07,-70.2359
2.874666667e+07,-82.6368
2.912000000e+07,-72.4856
2.949333333e+07,-68.7542
2.986666667e+07,-49.2024
3.024000000e+07,-50.4526
3.061333333e+07,-71.303
3.098666667e+07,-74.1779
3.136000000e+07,-76.1085
3.173333333e+07,-74.708
3.210666667e+07,-75.408
3.248000000e+07,-60.5275
3.285333333e+07,-60.1415
3.322666667e+07,-77.4572
3.360000000e+07,-74.864
3.397333333e+07,-72.9158
3.434666667e+07,-73.5516
3.472000000e+07,-72.7642
3.509333333e+07,-59.3779
3.546666667e+07,-57.754
3.584000000e+07,-47.6689
3.621333333e+07,-48.5323
3.658666667e+07,-71.2078
3.696000000e+07,-75.9232
3.733333333e+07,-70.0173
3.770666667e+07,-65.3496
3.808000000e+07,-60.0276
3.845333333e+07,-67.694
3.882666667e+07,-70.5554
3.920000000e+07,-72.4897
3.957333333e+07,-73.1688
3.994666667e+07,-71.8314
4.032000000e+07,-65.521
4.069333333e+07,-57.9836
4.106666667e+07,-63.4507
4.144000000e+07,-65.6812
4.181333333e+07,-54.1029
4.218666667e+07,-54.4234
4.256000000e+07,-68.5594
4.293333333e+07,-68.124
4.330666667e+07,-61.5403
4.368000000e+07,-63.7356
4.405333333e+07,-63.2201
4.442666667e+07,-68.5108
4.480000000e+07,-67.8067
4.517333333e+07,-67.7377
4.554666667e+07,-67.8974
4.592000000e+07,-61.222
4.629333333e+07,-60.7425
4.666666667e+07,-58.1945
4.704000000e+07,-68.6229
4.741333333e+07,-70.4636
4.778666667e+07,-37.7743
4.816000000e+07,-36.8948
4.853333333e+07,-60.272
4.890666667e+07,-64.5362
4.928000000e+07,-60.0729
4.965333333e+07,-66.5152
5.002666667e+07,-69.5477
5.040000000e+07,-73.1993
5.077333333e+07,-70.7734
5.114666667e+07,-69.721
5.152000000e+07,-65.6698
5.189333333e+07,-55.3006
5.226666667e+07,-59.2881
5.264000000e+07,-66.9087
5.301333333e+07,-67.9462
5.338666667e+07,-74.088
5.376000000e+07,-49.9848
5.413333333e+07,-48.3549
5.450666667e+07,-56.905
5.488000000e+07,-59.1353
5.525333333e+07,-72.9811
5.562666667e+07,-73.4822
5.600000000e+07,-79.2919
5.637333333e+07,-77.5474
5.674666667e+07,-73.855
5.712000000e+07,-53.5833
5.749333333e+07,-53.4209
5.786666667e+07,-77.5033
5.824000000e+07,-82.6257
5.861333333e+07,-70.8758
5.898666667e+07,-70.4621
5.936000000e+07,-68.2361
5.973333333e+07,-30.6331
6.010666667e+07,-28.3205
6.048000000e+07,-47.4175
6.085333333e+07,-70.43
6.122666667e+07,-69.8735
6.160000000e+07,-75.3277
6.197333333e+07,-69.5728
6.234666667e+07,-60.4747
6.272000000e+07,-53.8814
6.309333333e+07,-67.8154
6.346666667e+07,-68.8907
6.384000000e+07,-74.412
6.421333333e+07,-71.1583
6.458666667e+07,-66.4426
6.496000000e+07,-63.042
6.533333333e+07,-55.7119
6.570666667e+07,-49.552
6.608000000e+07,-45.8603
6.645333333e+07,-63.0776
6.682666667e+07,-68.2119
6.720000000e+07,-68.3512
6.757333333e+07,-66.7019
6.794666667e+07,-56.3664
6.832000000e+07,-58.0172
6.869333333e+07,-65.1015
6.906666667e+07,-66.1737
6.944000000e+07,-64.8954
6.981333333e+07,-64.9549
7.018666667e+07,-68.539
7.056000000e+07,-56.9682
7.093333333e+07,-55.7749
7.130666667e+07,-64.2061
7.168000000e+07,-47.302
7.205333333e+07,-41.3068
7.242666667e+07,-55.4548
7.280000000e+07,-74.9031
7.317333333e+07,-60.2807
7.354666667e+07,-58.0605
7.392000000e+07,-57.3053
7.429333333e+07,-64.1542
7.466666667e+07,-65.8721
7.504000000e+07,-66.1642
7.541333333e+07,-69.6196
7.578666667e+07,-64.1365
7.616000000e+07,-59.7008
7.653333333e+07,-58.5334
7.690666667e+07,-63.4868
7.728000000e+07,-69.515
7.765333333e+07,-56.1687
7.802666667e+07,-48.6305
7.840000000e+07,-58.0181
7.877333333e+07,-62.5682
7.914666667e+07,-55.7153
7.952000000e+07,-57.1995
7.989333333e+07,-64.0202
8.026666667e+07,-66.2116
8.064000000e+07,-68.15
8.101333333e+07,-65.8683
8.138666667e+07,-63.6804
8.176000000e+07,-57.8665
8.213333333e+07,-58.4883
8.250666667e+07,-64.6905
8.288000000e+07,-63.7903
8.325333333e+07,-74.5224
8.362666667e+07,-48.4454
8.400000000e+07,-40.7844
8.437333333e+07,-48.8315
8.474666667e+07,-53.9178
8.512000000e+07,-63.3445
8.549333333e+07,-72.0814
8.586666667e+07,-75.2458
8.624000000e+07,-73.5692
8.661333333e+07,-75.7743
8.698666667e+07,-59.7034
8.736000000e+07,-54.0471
8.773333333e+07,-66.8328
8.810666667e+07,-70.3749
8.848000000e+07,-75.5489
8.885333333e+07,-68.4569
8.922666667e+07,-66.9842
8.960000000e+07,-58.8288
8.997333333e+07,-47.5088
9.034666667e+07,-54.0873
9.072000000e+07,-70.0864
9.109333333e+07,-77.8643
9.146666667e+07,-78.2752
9.184000000e+07,-70.4278
9.221333333e+07,-68.3244
9.258666667e+07,-54.3446
9.296000000e+07,-56.5557
9.333333333e+07,-69.8709
9.370666667e+07,-68.2284
9.408000000e+07,-71.28
9.445333333e+07,-68.7328
9.482666667e+07,-68.155
9.520000000e+07,-52.8351
9.557333333e+07,-52.7899
9.594666667e+07,-44.0299
9.632000000e+07,-50.5006
9.669333333e+07,-63.8127
9.706666667e+07,-64.8055
9.744000000e+07,-65.62
9.781333333e+07,-58.1218
9.818666667e+07,-56.1435
9.856000000e+07,-62.6748
9.893333333e+07,-66.0854
9.930666667e+07,-68.3113
9.968000000e+07,-66.2145
1.000533333e+08,-69.6004
1.004266667e+08,-57.4993
1.008000000e+08,-53.2985
1.011733333e+08,-57.6835
1.015466667e+08,-61.1222
1.019200000e+08,-52.9474
1.022933333e+08,-56.8777
1.026666667e+08,-76.9899
1.030400000e+08,-61.6019
1.034133333e+08,-55.9513
1.037866667e+08,-59.4385
1.041600000e+08,-61.6191
1.045333333e+08,-69.3696
1.049066667e+08,-69.5665
1.052800000e+08,-68.5188
1.056533333e+08,-60.0702
1.060266667e+08,-54.88
1.064000000e+08,-54.827
1.067733333e+08,-55.5525
1.071466667e+08,-64.6868
1.075200000e+08,-67.7243
1.078933333e+08,-48.6986
1.082666667e+08,-51.4973
1.086400000e+08,-58.3233
1.090133333e+08,-57.1298
1.093866667e+08,-54.9266
1.097600000e+08,-67.7919
1.101333333e+08,-69.6008
1.105066667e+08,-70.012
1.108800000e+08,-68.6929
1.112533333e+08,-62.3929
1.116266667e+08,-56.9916
1.120000000e+08,-51.0248
1.123733333e+08,-59.8007
1.127466667e+08,-63.2864
1.131200000e+08,-65.7535
1.134933333e+08,-69.8452
1.138666667e+08,-64.9595
1.142400000e+08,-64.2293
1.146133333e+08,-53.2803
1.149866667e+08,-59.0553
1.153600000e+08,-65.0533
1.157333333e+08,-70.1797
1.161066667e+08,-70.3092
1.164800000e+08,-68.2027
1.168533333e+08,-69.0559
1.172266667e+08,-49.874
1.176000000e+08,-52.2562
1.179733333e+08,-71.0946
1.183466667e+08,-69.0171
1.187200000e+08,-70.6518
1.190933333e+08,-78.9915
1.194666667e+08,-61.2201
1.198400000e+08,-37.5796
1.202133333e+08,-38.5209
1.205866667e+08,-68.2828
1.209600000e+08,-71.0942
1.213333333e+08,-70.3669
1.217066667e+08,-73.9956
1.220800000e+08,-66.8915
1.224533333e+08,-50.9699
1.228266667e+08,-49.6684
1.232000000e+08,-65.6836
1.235733333e+08,-67.3868
1.239466667e+08,-67.04
1.243200000e+08,-68.4823
1.246933333e+08,-67.2343
1.250666667e+08,-55.4399
1.254400000e+08,-52.1292
1.258133333e+08,-55.8867
1.261866667e+08,-55.4707
1.265600000e+08,-70.0599
1.269333333e+08,-70.3148
1.273066667e+08,-69.4841
1.276800000e+08,-58.3576
1.280533333e+08,-51.1926
1.284266667e+08,-58.0832
1.288000000e+08,-60.8686
1.291733333e+08,-62.9915
1.295466667e+08,-67.0936
1.299200000e+08,-62.0957
1.302933333e+08,-57.8408
1.306666667e+08,-52.2144
1.310400000e+08,-56.2904
1.314133333e+08,-61.65
1.317866667e+08,-45.3766
1.321600000e+08,-44.4706
1.325333333e+08,-65.707
1.329066667e+08,-62.3259
1.332800000e+08,-51.8933
1.336533333e+08,-52.6437
1.340266667e+08,-53.2595
1.344000000e+08,-61.4796
1.347733333e+08,-64.6632
1.351466667e+08,-67.9118
1.355200000e+08,-62.1192
1.358933333e+08,-56.3499
1.362666667e+08,-55.0735
1.366400000e+08,-55.883
1.370133333e+08,-62.6313
1.373866667e+08,-61.4211
1.377600000e+08,-60.6123
1.381333333e+08,-57.9962
1.385066667e+08,-59.9975
1.388800000e+08,-57.1767
1.392533333e+08,-50.7597
1.396266667e+08,-55.0169
1.400000000e+08,-60.864
1.403733333e+08,-62.4114
1.407466667e+08,-64.2471
1.411200000e+08,-60.4049
1.414933333e+08,-59.6926
1.418666667e+08,-52.7577
1.422400000e+08,-56.5541
1.426133333e+08,-70.2868
1.429866667e+08,-66.3575
1.433600000e+08,-69.9452
1.437333333e+08,-44.4226
1.441066667e+08,-43.0251
1.444800000e+08,-48.6703
1.448533333e+08,-50.1121
1.452266667e+08,-64.7857
1.456000000e+08,-67.3177
1.459733333e+08,-75.379
1.463466667e+08,-72.4714
1.467200000e+08,-66.9248
1.470933333e+08,-52.578
1.474666667e+08,-51.7457
1.478400000e+08,-74.9665
1.482133333e+08,-72.7634
1.485866667e+08,-71.9192
1.489600000e+08,-73.4345
1.493333333e+08,-69.7617
1.497066667e+08,-49.852
1.500800000e+08,-46.1785
1.504533333e+08,-63.6106
1.508266667e+08,-75.8555
1.512000000e+08,-76.8059
1.515733333e+08,-70.3993
1.519466667e+08,-69.6591
1.523200000e+08,-61.2439
1.526933333e+08,-53.0172
1.530666667e+08,-64.5792
1.534400000e+08,-65.3244
1.538133333e+08,-68.825
1.541866667e+08,-72.3076
1.545600000e+08,-65.5304
1.549333333e+08,-60.5991
1.553066667e+08,-48.8653
1.556800000e+08,-52.5858
1.560533333e+08,-49.531
1.564266667e+08,-60.3879
1.568000000e+08,-62.1068
1.571733333e+08,-60.6814
1.575466667e+08,-59.7647
1.579200000e+08,-52.0165
1.582933333e+08,-53.5273
1.586666667e+08,-65.3569
1.590400000e+08,-72.6079
1.594133333e+08,-63.7597
1.597866667e+08,-64.2282
1.601600000e+08,-59.925
1.605333333e+08,-50.5186
1.609066667e+08,-49.8955
1.612800000e+08,-54.868
1.616533333e+08,-60.2749
1.620266667e+08,-59.2258
1.624000000e+08,-64.4378
1.627733333e+08,-64.3478
1.631466667e+08,-57.7911
1.635200000e+08,-54.4044
1.638933333e+08,-55.913
1.642666667e+08,-59.4575
1.646400000e+08,-61.9922
1.650133333e+08,-62.1557
1.653866667e+08,-62.816
1.657600000e+08,-56.1949
1.661333333e+08,-51.8301
1.665066667e+08,-50.1656
1.668800000e+08,-54.2734
1.672533333e+08,-60.669
1.676266667e+08,-59.4526
1.680000000e+08,-48.6965
1.683733333e+08,-60.1195
1.687466667e+08,-58.4396
1.691200000e+08,-55.5001
1.694933333e+08,-57.1614
1.698666667e+08,-69.5619
1.702400000e+08,-67.762
1.706133333e+08,-67.9004
1.709866667e+08,-63.55
1.713600000e+08,-59.6733
1.717333333e+08,-49.3897
1.721066667e+08,-48.6687
1.724800000e+08,-57.6704
1.728533333e+08,-62.9769
1.732266667e+08,-63.4879
1.736000000e+08,-67.1889
1.739733333e+08,-61.6361
1.743466667e+08,-54.2099
1.747200000e+08,-51.9637
1.750933333e+08,-61.1264
1.754666667e+08,-65.834
1.758400000e+08,-70.9562
1.762133333e+08,-63.9706
1.765866667e+08,-61.0326
1.769600000e+08,-55.0669
1.773333333e+08,-47.9185
1.777066667e+08,-57.5737
1.780800000e+08,-65.8023
1.784533333e+08,-62.9544
1.788266667e+08,-62.7024
1.792000000e+08,-71.2968
1.795733333e+08,-51.4616
1.799466667e+08,-39.1306
1.803200000e+08,-44.1364
1.806933333e+08,-68.3051
1.810666667e+08,-70.4703
1.814400000e+08,-73.5493
1.818133333e+08,-71.9612
1.821866667e+08,-62.5428
1.825600000e+08,-46.4449
1.829333333e+08,-48.09
1.833066667e+08,-67.6049
1.836800000e+08,-68.0298
1.840533333e+08,-65.7832
1.844266667e+08,-69.9219
1.848000000e+08,-63.267
1.851733333e+08,-52.1034
1.855466667e+08,-51.8471
1.859200000e+08,-67.8762
1.862933333e+08,-64.8382
1.866666667e+08,-65.176
1.870400000e+08,-66.8175
1.874133333e+08,-61.9612
1.877866667e+08,-50.9308
1.881600000e+08,-48.67
1.885333333e+08,-58.1219
1.889066667e+08,-60.007
1.892800000e+08,-65.1131
1.896533333e+08,-63.9821
1.900266667e+08,-65.0536
1.904000000e+08,-58.1734
1.907733333e+08,-53.8566
1.911466667e+08,-58.1334
1.915200000e+08,-53.0173
1.918933333e+08,-49.637
1.922666667e+08,-51.6159
1.926400000e+08,-61.0692
1.930133333e+08,-58.701
1.933866667e+08,-50.273
1.937600000e+08,-50.7878
1.941333333e+08,-52.472
1.945066667e+08,-58.3756
1.948800000e+08,-62.2397
1.952533333e+08,-64.7627
1.956266667e+08,-60.4123
1.960000000e+08,-57.6112
1.963733333e+08,-56.1344
1.967466667e+08,-56.1356
1.971200000e+08,-63.5726
1.974933333e+08,-64.1153
1.978666667e+08,-60.3179
1.982400000e+08,-61.0667
1.986133333e+08,-54.5834
1.989866667e+08,-51.486
1.993600000e+08,-49.0407
1.997333333e+08,-57.062
2.001066667e+08,-61.513
2.004800000e+08,-61.981
2.008533333e+08,-62.9821
2.012266667e+08,-63.1053
2.016000000e+08,-62.4821
2.019733333e+08,-54.6416
2.023466667e+08,-63.7393
2.027200000e+08,-68.9722
2.030933333e+08,-70.066
2.034666667e+08,-69.1767
2.038400000e+08,-54.9103
2.042133333e+08,-54.8785
2.045866667e+08,-47.4436
2.049600000e+08,-53.2636
2.053333333e+08,-66.0986
2.057066667e+08,-66.2765
2.060800000e+08,-66.9666
2.064533333e+08,-66.7453
2.068266667e+08,-65.565
2.072000000e+08,-52.2616
2.075733333e+08,-54.4898
2.079466667e+08,-69.1167
2.083200000e+08,-69.1031
2.086933333e+08,-71.3325
2.090666667e+08,-66.7648
2.094400000e+08,-71.461
2.098133333e+08,-47.1372
2.101866667e+08,-47.1032
2.105600000e+08,-73.0756
2.109333333e+08,-73.1355
2.113066667e+08,-66.6206
2.116800000e+08,-68.2469
2.120533333e+08,-67.0031
2.124266667e+08,-55.212
2.128000000e+08,-52.6347
2.131733333e+08,-68.1254
2.135466667e+08,-69.851
2.139200000e+08,-64.5945
2.142933333e+08,-60.7172
2.146666667e+08,-64.9021
2.150400000e+08,-52.2893
2.154133333e+08,-47.1309
2.157866667e+08,-46.35
2.161600000e+08,-45.5355
2.165333333e+08,-61.0462
2.169066667e+08,-60.8452
2.172800000e+08,-61.2243
2.176533333e+08,-62.688
2.180266667e+08,-53.9559
2.184000000e+08,-60.8533
2.187733333e+08,-62.147
2.191466667e+08,-63.5348
2.195200000e+08,-63.1722
2.198933333e+08,-61.6148
2.202666667e+08,-56.2661
2.206400000e+08,-47.3787
2.210133333e+08,-49.7333
2.213866667e+08,-54.5597
2.217600000e+08,-60.8615
2.221333333e+08,-62.6461
2.225066667e+08,-61.3541
2.228800000e+08,-68.4963
2.232533333e+08,-55.7547
2.236266667e+08,-56.4493
2.240000000e+08,-55.2357
2.243733333e+08,-62.7663
2.247466667e+08,-63.0217
2.251200000e+08,-62.7475
2.254933333e+08,-61.6518
2.258666667e+08,-53.4298
2.262400000e+08,-51.5781
2.266133333e+08,-49.6355
2.269866667e+08,-56.1055
2.273600000e+08,-61.3519
2.277333333e+08,-46.5367
2.281066667e+08,-44.0718
2.284800000e+08,-62.5905
2.288533333e+08,-58.4103
2.292266667e+08,-55.0847
2.296000000e+08,-59.8445
2.299733333e+08,-65.7957
2.303466667e+08,-64.2664
2.307200000e+08,-61.9493
2.310933333e+08,-58.8028
2.314666667e+08,-55.7516
2.318400000e+08,-48.0486
2.322133333e+08,-50.5893
2.325866667e+08,-65.0667
2.329600000e+08,-65.0574
2.333333333e+08,-66.3036
2.337066667e+08,-61.9465
2.340800000e+08,-61.873
2.344533333e+08,-54.3429
2.348266667e+08,-54.7078
2.352000000e+08,-67.664
2.355733333e+08,-74.6184
2.359466667e+08,-67.926
2.363200000e+08,-72.8213
2.366933333e+08,-68.8219
2.370666667e+08,-47.5616
2.374400000e+08,-45.8852
2.378133333e+08,-60.5993
2.381866667e+08,-63.5743
2.385600000e+08,-67.7952
2.389333333e+08,-77.9223
2.393066667e+08,-54.4705
2.396800000e+08,-48.8918
2.400533333e+08,-43.5271
2.404266667e+08,-55.399
2.408000000e+08,-74.6835
2.411733333e+08,-69.6215
2.415466667e+08,-67.7042
2.419200000e+08,-70.3575
2.422933333e+08,-56.1664
2.426666667e+08,-47.0908
2.430400000e+08,-55.1263
2.434133333e+08,-65.6788
2.437866667e+08,-67.9012
2.441600000e+08,-72.0095
2.445333333e+08,-70.0055
2.449066667e+08,-63.5867
2.452800000e+08,-53.7589
2.456533333e+08,-56.6055
2.460266667e+08,-68.3989
2.464000000e+08,-72.2942
2.467733333e+08,-67.4926
2.471466667e+08,-69.2895
2.475200000e+08,-61.6407
2.478933333e+08,-47.9838
2.482666667e+08,-48.3626
2.486400000e+08,-56.7208
2.490133333e+08,-61.9942
2.493866667e+08,-67.1056
2.497600000e+08,-66.5302
2.501333333e+08,-63.7616
2.505066667e+08,-55.1682
2.508800000e+08,-54.1884
2.512533333e+08,-62.362
2.516266667e+08,-61.9468
2.520000000e+08,-59.4955
2.523733333e+08,-60.6503
2.527466667e+08,-61.1389
2.531200000e+08,-53.898
2.534933333e+08,-50.4403
2.538666667e+08,-51.7344
2.542400000e+08,-56.2759
2.546133333e+08,-64.3782
2.549866667e+08,-63.7197
2.553600000e+08,-63.1973
2.557333333e+08,-61.4825
2.561066667e+08,-57.8785
2.564800000e+08,-57.5806
2.568533333e+08,-59.6537
2.572266667e+08,-66.9264
2.576000000e+08,-67.3869
2.579733333e+08,-65.0826
2.583466667e+08,-58.4605
2.587200000e+08,-53.7073
2.590933333e+08,-48.8938
2.594666667e+08,-49.6287
2.598400000e+08,-61.465
2.602133333e+08,-64.5989
2.605866667e+08,-63.4684
2.609600000e+08,-65.6983
2.613333333e+08,-61.8812
2.617066667e+08,-56.143
2.620800000e+08,-54.4343
2.624533333e+08,-66.4991
2.628266667e+08,-67.0996
2.632000000e+08,-69.0981
2.635733333e+08,-59.7339
2.639466667e+08,-47.6537
2.643200000e+08,-53.4252
2.646933333e+08,-48.0643
2.650666667e+08,-56.1297
2.654400000e+08,-65.901
2.658133333e+08,-69.3496
2.661866667e+08,-72.1458
2.665600000e+08,-70.9258
2.669333333e+08,-65.2603
2.673066667e+08,-54.2435
2.676800000e+08,-62.6473
2.680533333e+08,-82.0477
2.684266667e+08,-74.3427
2.688000000e+08,-76.9078
2.691733333e+08,-70.8971
2.695466667e+08,-63.8805
2.699200000e+08,-46.4633
2.702933333e+08,-49.7191
2.706666667e+08,-77.2894
2.710400000e+08,-65.6119
2.714133333e+08,-65.0312
2.717866667e+08,-71.0394
2.721600000e+08,-70.8169
2.725333333e+08,-54.5884
2.729066667e+08,-55.6414
2.732800000e+08,-73.7288
2.736533333e+08,-73.0785
2.740266667e+08,-67.8796
2.744000000e+08,-65.8962
2.747733333e+08,-65.719
2.751466667e+08,-50.3615
2.755200000e+08,-48.8769
2.758933333e+08,-41.8348
2.762666667e+08,-44.1589
2.766400000e+08,-67.3101
2.770133333e+08,-66.8011
2.773866667e+08,-70.2028
2.777600000e+08,-59.1855
2.781333333e+08,-55.8811
2.785066667e+08,-60.1079
2.788800000e+08,-67.4865
2.792533333e+08,-79.8247
2.796266667e+08,-69.2592
2.800000000e+08,-64.0321

