Model,MDO3104
Firmware Version,1.30

Waveform Type,RF_FD
Point Format,Y
Horizontal Units,Hz
Horizontal Scale,2.8e+07
,
Sample Interval,373333
Record Length,751
Gating,0.133155792277% to 100.0%
Probe Attenuation,1
Vertical Units,dBm
Vertical Offset,0
Vertical Scale,10
Vertical Position,0
Center Frequency,1.4e+08
Span,2.8e+08
Reference Level,-15
Label,
FREQUENCY,FD NORM
0.000000000e+00,-63.9936
3.733333333e+05,-72.7959
7.466666667e+05,-75.6032
1.120000000e+06,-75.4292
1.493333333e+06,-72.3455
1.866666667e+06,-69.642
2.240000000e+06,-71.2831
2.613333333e+06,-70.533
2.986666667e+06,-69.7737
3.360000000e+06,-60.4663
3.733333333e+06,-61.3445
4.106666667e+06,-64.1164
4.480000000e+06,-62.4943
4.853333333e+06,-73.5853
5.226666667e+06,-64.2556
5.600000000e+06,-70.0582
5.973333333e+06,-70.5782
6.346666667e+06,-71.3471
6.720000000e+06,-69.2442
7.093333333e+06,-71.1326
7.466666667e+06,-74.4712
7.840000000e+06,-74.4073
8.213333333e+06,-69.0028
8.586666667e+06,-70.7523
8.960000000e+06,-72.1345
9.333333333e+06,-72.9987
9.706666667e+06,-68.7809
1.008000000e+07,-72.8145
1.045333333e+07,-75.1218
1.082666667e+07,-68.2081
1.120000000e+07,-64.8691
1.157333333e+07,-68.0927
1.194666667e+07,-71.0388
1.232000000e+07,-71.4893
1.269333333e+07,-72.4145
1.306666667e+07,-68.2301
1.344000000e+07,-63.523
1.381333333e+07,-64.6009
1.418666667e+07,-64.5358
1.456000000e+07,-67.3235
1.493333333e+07,-69.9946
1.530666667e+07,-69.0075
1.568000000e+07,-73.116
1.605333333e+07,-70.7964
1.642666667e+07,-64.8229
1.680000000e+07,-65.726
1.717333333e+07,-68.4601
1.754666667e+07,-68.854
1.792000000e+07,-72.9285
1.829333333e+07,-71.2754
1.866666667e+07,-73.4884
1.904000000e+07,-63.8589
1.941333333e+07,-63.1215
1.978666667e+07,-68.6973
2.016000000e+07,-68.3384
2.053333333e+07,-76.3995
2.090666667e+07,-81.0012
2.128000000e+07,-61.7392
2.165333333e+07,-63.2066
2.202666667e+07,-62.6978
2.240000000e+07,-68.7584
2.277333333e+07,-64.5955
2.314666667e+07,-74.551
2.352000000e+07,-65.3948
2.389333333e+07,-60.8153
2.426666667e+07,-61.584
2.464000000e+07,-60.6956
2.501333333e+07,-52.6681
2.538666667e+07,-58.0557
2.576000000e+07,-67.1257
2.613333333e+07,-65.0645
2.650666667e+07,-65.11
2.688000000e+07,-66.0253
2.725333333e+07,-61.8975
2.762666667e+07,-65.0767
2.800000000e+07,-71.789
2.837333333e+07,-69.649
2.874666667e+07,-70.7596
2.912000000e+07,-71.8638
2.949333333e+07,-74.1714
2.986666667e+07,-61.6906
3.024000000e+07,-62.6596
3.061333333e+07,-71.6168
3.098666667e+07,-73.8384
3.136000000e+07,-73.529
3.173333333e+07,-74.1099
3.210666667e+07,-76.9761
3.248000000e+07,-60.3596
3.285333333e+07,-59.799
3.322666667e+07,-79.6204
3.360000000e+07,-77.8141
3.397333333e+07,-78.9256
3.434666667e+07,-78.3346
3.472000000e+07,-71.1887
3.509333333e+07,-61.3459
3.546666667e+07,-58.9734
3.584000000e+07,-62.2586
3.621333333e+07,-63.3486
3.658666667e+07,-81.6666
3.696000000e+07,-82.6174
3.733333333e+07,-74.0266
3.770666667e+07,-63.6493
3.808000000e+07,-58.9669
3.845333333e+07,-68.4028
3.882666667e+07,-79.8185
3.920000000e+07,-76.7632
3.957333333e+07,-82.4364
3.994666667e+07,-77.7636
4.032000000e+07,-66.5803
4.069333333e+07,-58.097
4.106666667e+07,-62.6914
4.144000000e+07,-64.207
4.181333333e+07,-68.3025
4.218666667e+07,-70.1155
4.256000000e+07,-72.7204
4.293333333e+07,-68.9333
4.330666667e+07,-60.8015
4.368000000e+07,-62.3298
4.405333333e+07,-61.707
4.442666667e+07,-69.6465
4.480000000e+07,-67.4149
4.517333333e+07,-70.2201
4.554666667e+07,-69.683
4.592000000e+07,-61.6854
4.629333333e+07,-61.14
4.666666667e+07,-58.2008
4.704000000e+07,-66.0852
4.741333333e+07,-73.1213
4.778666667e+07,-68.0167
4.816000000e+07,-65.9028
4.853333333e+07,-64.6931
4.890666667e+07,-63.9607
4.928000000e+07,-59.9689
4.965333333e+07,-69.7654
5.002666667e+07,-72.1594
5.040000000e+07,-66.819
5.077333333e+07,-67.1506
5.114666667e+07,-66.0014
5.152000000e+07,-62.7349
5.189333333e+07,-54.767
5.226666667e+07,-58.4105
5.264000000e+07,-67.2009
5.301333333e+07,-71.7026
5.338666667e+07,-71.7936
5.376000000e+07,-69.7939
5.413333333e+07,-69.1675
5.450666667e+07,-57.1763
5.488000000e+07,-59.2774
5.525333333e+07,-79.9342
5.562666667e+07,-73.8608
5.600000000e+07,-75.4897
5.637333333e+07,-77.0822
5.674666667e+07,-72.5283
5.712000000e+07,-53.8297
5.749333333e+07,-53.6157
5.786666667e+07,-70.2546
5.824000000e+07,-73.8857
5.861333333e+07,-73.9368
5.898666667e+07,-81.6161
5.936000000e+07,-80.7777
5.973333333e+07,-36.7658
6.010666667e+07,-34.46
6.048000000e+07,-53.2939
6.085333333e+07,-71.9641
6.122666667e+07,-77.1015
6.160000000e+07,-81.3472
6.197333333e+07,-75.858
6.234666667e+07,-59.7326
6.272000000e+07,-52.9967
6.309333333e+07,-66.8711
6.346666667e+07,-73.7935
6.384000000e+07,-69.0894
6.421333333e+07,-78.5791
6.458666667e+07,-67.3212
6.496000000e+07,-63.1218
6.533333333e+07,-54.7693
6.570666667e+07,-60.9951
6.608000000e+07,-66.0386
6.645333333e+07,-69.7911
6.682666667e+07,-77.5435
6.720000000e+07,-70.3994
6.757333333e+07,-69.3663
6.794666667e+07,-55.9449
6.832000000e+07,-58.3001
6.869333333e+07,-61.4481
6.906666667e+07,-67.9167
6.944000000e+07,-66.7835
6.981333333e+07,-66.5693
7.018666667e+07,-67.2123
7.056000000e+07,-58.669
7.093333333e+07,-57.7307
7.130666667e+07,-65.3127
7.168000000e+07,-67.2621
7.205333333e+07,-59.7507
7.242666667e+07,-64.9204
7.280000000e+07,-76.0769
7.317333333e+07,-61.8635
7.354666667e+07,-59.3357
7.392000000e+07,-57.4122
7.429333333e+07,-62.94
7.466666667e+07,-64.3367
7.504000000e+07,-64.8635
7.541333333e+07,-64.9984
7.578666667e+07,-62.0714
7.616000000e+07,-59.4104
7.653333333e+07,-55.749
7.690666667e+07,-59.1601
7.728000000e+07,-66.1729
7.765333333e+07,-67.4981
7.802666667e+07,-67.5162
7.840000000e+07,-69.9699
7.877333333e+07,-63.3598
7.914666667e+07,-54.1399
7.952000000e+07,-56.4729
7.989333333e+07,-64.2664
8.026666667e+07,-66.8944
8.064000000e+07,-70.4094
8.101333333e+07,-62.6757
8.138666667e+07,-62.3907
8.176000000e+07,-56.0951
8.213333333e+07,-57.1628
8.250666667e+07,-78.987
8.288000000e+07,-70.0614
8.325333333e+07,-70.2612
8.362666667e+07,-58.7879
8.400000000e+07,-53.6736
8.437333333e+07,-53.6075
8.474666667e+07,-52.005
8.512000000e+07,-69.6447
8.549333333e+07,-72.0798
8.586666667e+07,-67.7496
8.624000000e+07,-68.4623
8.661333333e+07,-75.1709
8.698666667e+07,-61.1604
8.736000000e+07,-54.5623
8.773333333e+07,-63.0822
8.810666667e+07,-75.7135
8.848000000e+07,-74.5804
8.885333333e+07,-69.0256
8.922666667e+07,-69.6535
8.960000000e+07,-60.1634
8.997333333e+07,-50.0477
9.034666667e+07,-56.0829
9.072000000e+07,-73.0908
9.109333333e+07,-70.909
9.146666667e+07,-70.6104
9.184000000e+07,-68.8119
9.221333333e+07,-64.3144
9.258666667e+07,-53.4558
9.296000000e+07,-56.9508
9.333333333e+07,-66.1754
9.370666667e+07,-67.7585
9.408000000e+07,-64.3948
9.445333333e+07,-64.8594
9.482666667e+07,-62.7478
9.520000000e+07,-52.6635
9.557333333e+07,-53.5638
9.594666667e+07,-53.3616
9.632000000e+07,-55.1355
9.669333333e+07,-69.082
9.706666667e+07,-70.3896
9.744000000e+07,-62.7776
9.781333333e+07,-55.8583
9.818666667e+07,-54.7556
9.856000000e+07,-63.5694
9.893333333e+07,-64.7468
9.930666667e+07,-65.2501
9.968000000e+07,-72.9648
1.000533333e+08,-70.5639
1.004266667e+08,-61.1867
1.008000000e+08,-55.0629
1.011733333e+08,-57.0944
1.015466667e+08,-60.1207
1.019200000e+08,-62.0187
1.022933333e+08,-63.6623
1.026666667e+08,-66.0846
1.030400000e+08,-62.6206
1.034133333e+08,-55.9515
1.037866667e+08,-57.4467
1.041600000e+08,-59.7105
1.045333333e+08,-66.385
1.049066667e+08,-68.2961
1.052800000e+08,-65.5253
1.056533333e+08,-62.6098
1.060266667e+08,-55.9287
1.064000000e+08,-53.3011
1.067733333e+08,-53.7319
1.071466667e+08,-59.9869
1.075200000e+08,-62.9429
1.078933333e+08,-52.75
1.082666667e+08,-54.9146
1.086400000e+08,-58.6774
1.090133333e+08,-58.72
1.093866667e+08,-56.5115
1.097600000e+08,-67.5018
1.101333333e+08,-66.5709
1.105066667e+08,-68.2369
1.108800000e+08,-66.4416
1.112533333e+08,-58.742
1.116266667e+08,-56.7018
1.120000000e+08,-51.3223
1.123733333e+08,-62.2289
1.127466667e+08,-68.7573
1.131200000e+08,-67.1941
1.134933333e+08,-67.1331
1.138666667e+08,-63.898
1.142400000e+08,-61.266
1.146133333e+08,-54.6844
1.149866667e+08,-61.3822
1.153600000e+08,-72.1543
1.157333333e+08,-74.1289
1.161066667e+08,-67.9336
1.164800000e+08,-68.8854
1.168533333e+08,-69.5056
1.172266667e+08,-50.208
1.176000000e+08,-53.0958
1.179733333e+08,-70.4976
1.183466667e+08,-70.0467
1.187200000e+08,-70.4421
1.190933333e+08,-73.8317
1.194666667e+08,-60.4891
1.198400000e+08,-36.6308
1.202133333e+08,-37.551
1.205866667e+08,-67.3827
1.209600000e+08,-69.0609
1.213333333e+08,-67.9462
1.217066667e+08,-74.0646
1.220800000e+08,-73.6017
1.224533333e+08,-51.6893
1.228266667e+08,-49.9736
1.232000000e+08,-73.1473
1.235733333e+08,-68.4377
1.239466667e+08,-66.5413
1.243200000e+08,-68.1482
1.246933333e+08,-70.7355
1.250666667e+08,-55.3071
1.254400000e+08,-51.5796
1.258133333e+08,-65.6243
1.261866667e+08,-72.6072
1.265600000e+08,-74.059
1.269333333e+08,-74.2453
1.273066667e+08,-75.5291
1.276800000e+08,-57.3583
1.280533333e+08,-51.093
1.284266667e+08,-59.0229
1.288000000e+08,-60.944
1.291733333e+08,-62.3818
1.295466667e+08,-67.1618
1.299200000e+08,-64.0118
1.302933333e+08,-60.1111
1.306666667e+08,-52.6401
1.310400000e+08,-57.7111
1.314133333e+08,-59.4506
1.317866667e+08,-51.2091
1.321600000e+08,-50.3703
1.325333333e+08,-66.7057
1.329066667e+08,-61.0686
1.332800000e+08,-54.0633
1.336533333e+08,-54.4304
1.340266667e+08,-53.3462
1.344000000e+08,-59.4171
1.347733333e+08,-63.0184
1.351466667e+08,-62.6673
1.355200000e+08,-62.5974
1.358933333e+08,-55.973
1.362666667e+08,-55.3055
1.366400000e+08,-53.4549
1.370133333e+08,-60.849
1.373866667e+08,-61.6814
1.377600000e+08,-64.0572
1.381333333e+08,-61.8535
1.385066667e+08,-58.9264
1.388800000e+08,-56.2819
1.392533333e+08,-51.6048
1.396266667e+08,-56.8587
1.400000000e+08,-65.6245
1.403733333e+08,-65.279
1.407466667e+08,-65.4191
1.411200000e+08,-64.0714
1.414933333e+08,-59.501
1.418666667e+08,-52.5378
1.422400000e+08,-55.5269
1.426133333e+08,-66.7719
1.429866667e+08,-66.14
1.433600000e+08,-69.107
1.437333333e+08,-59.9847
1.441066667e+08,-54.6535
1.444800000e+08,-49.3854
1.448533333e+08,-50.8965
1.452266667e+08,-71.1405
1.456000000e+08,-78.243
1.459733333e+08,-72.8597
1.463466667e+08,-69.2351
1.467200000e+08,-69.2201
1.470933333e+08,-51.741
1.474666667e+08,-50.863
1.478400000e+08,-69.4174
1.482133333e+08,-67.1377
1.485866667e+08,-73.3082
1.489600000e+08,-72.0552
1.493333333e+08,-72.0575
1.497066667e+08,-52.4379
1.500800000e+08,-49.1217
1.504533333e+08,-62.9269
1.508266667e+08,-72.3738
1.512000000e+08,-72.343
1.515733333e+08,-69.4022
1.519466667e+08,-69.6254
1.523200000e+08,-57.7431
1.526933333e+08,-51.1547
1.530666667e+08,-63.3052
1.534400000e+08,-74.3175
1.538133333e+08,-64.653
1.541866667e+08,-68.2759
1.545600000e+08,-64.147
1.549333333e+08,-59.3108
1.553066667e+08,-48.8047
1.556800000e+08,-53.014
1.560533333e+08,-52.1517
1.564266667e+08,-67.7043
1.568000000e+08,-68.8816
1.571733333e+08,-66.7267
1.575466667e+08,-60.1
1.579200000e+08,-52.2274
1.582933333e+08,-53.9863
1.586666667e+08,-62.4445
1.590400000e+08,-63.2553
1.594133333e+08,-65.886
1.597866667e+08,-63.8223
1.601600000e+08,-63.7037
1.605333333e+08,-50.2771
1.609066667e+08,-49.2023
1.612800000e+08,-54.6946
1.616533333e+08,-58.9461
1.620266667e+08,-63.6634
1.624000000e+08,-65.8762
1.627733333e+08,-65.9099
1.631466667e+08,-57.0891
1.635200000e+08,-55.6041
1.638933333e+08,-56.9918
1.642666667e+08,-61.1249
1.646400000e+08,-63.7572
1.650133333e+08,-64.1917
1.653866667e+08,-59.8688
1.657600000e+08,-55.8451
1.661333333e+08,-51.9088
1.665066667e+08,-50.4728
1.668800000e+08,-54.4928
1.672533333e+08,-64.2158
1.676266667e+08,-63.7889
1.680000000e+08,-65.0488
1.683733333e+08,-62.6515
1.687466667e+08,-57.5973
1.691200000e+08,-54.7774
1.694933333e+08,-56.8216
1.698666667e+08,-63.0338
1.702400000e+08,-63.8358
1.706133333e+08,-61.4196
1.709866667e+08,-60.0028
1.713600000e+08,-55.4523
1.717333333e+08,-49.5919
1.721066667e+08,-48.7169
1.724800000e+08,-59.2847
1.728533333e+08,-68.3614
1.732266667e+08,-66.9531
1.736000000e+08,-69.2695
1.739733333e+08,-64.8708
1.743466667e+08,-56.3601
1.747200000e+08,-53.4306
1.750933333e+08,-64.2519
1.754666667e+08,-66.9816
1.758400000e+08,-69.7623
1.762133333e+08,-70.2188
1.765866667e+08,-69.6458
1.769600000e+08,-56.4082
1.773333333e+08,-47.4889
1.777066667e+08,-56.7167
1.780800000e+08,-69.0598
1.784533333e+08,-72.6722
1.788266667e+08,-71.4089
1.792000000e+08,-72.1286
1.795733333e+08,-53.7168
1.799466667e+08,-41.4185
1.803200000e+08,-46.5948
1.806933333e+08,-69.8897
1.810666667e+08,-68.982
1.814400000e+08,-69.8526
1.818133333e+08,-69.9526
1.821866667e+08,-63.6819
1.825600000e+08,-46.8853
1.829333333e+08,-48.5779
1.833066667e+08,-64.1112
1.836800000e+08,-74.7769
1.840533333e+08,-73.2649
1.844266667e+08,-64.6721
1.848000000e+08,-63.997
1.851733333e+08,-53.2798
1.855466667e+08,-52.5933
1.859200000e+08,-66.8498
1.862933333e+08,-67.3546
1.866666667e+08,-66.9689
1.870400000e+08,-62.4488
1.874133333e+08,-60.0373
1.877866667e+08,-50.4054
1.881600000e+08,-48.3049
1.885333333e+08,-58.6407
1.889066667e+08,-66.1969
1.892800000e+08,-65.6616
1.896533333e+08,-66.3388
1.900266667e+08,-66.2367
1.904000000e+08,-57.5269
1.907733333e+08,-53.8405
1.911466667e+08,-60.8631
1.915200000e+08,-62.3331
1.918933333e+08,-56.9395
1.922666667e+08,-54.2626
1.926400000e+08,-60.5297
1.930133333e+08,-58.5135
1.933866667e+08,-49.9691
1.937600000e+08,-53.1857
1.941333333e+08,-55.3601
1.945066667e+08,-62.5901
1.948800000e+08,-63.6919
1.952533333e+08,-70.4987
1.956266667e+08,-61.7488
1.960000000e+08,-60.0033
1.963733333e+08,-54.3524
1.967466667e+08,-54.6103
1.971200000e+08,-65.9115
1.974933333e+08,-65.2233
1.978666667e+08,-62.4902
1.982400000e+08,-64.1268
1.986133333e+08,-53.7223
1.989866667e+08,-51.3
1.993600000e+08,-48.2624
1.997333333e+08,-57.0771
2.001066667e+08,-62.2008
2.004800000e+08,-65.7534
2.008533333e+08,-62.0704
2.012266667e+08,-61.4256
2.016000000e+08,-60.2553
2.019733333e+08,-54.9266
2.023466667e+08,-60.1917
2.027200000e+08,-68.916
2.030933333e+08,-66.1715
2.034666667e+08,-64.3972
2.038400000e+08,-50.8335
2.042133333e+08,-51.9345
2.045866667e+08,-46.8238
2.049600000e+08,-52.148
2.053333333e+08,-66.6226
2.057066667e+08,-67.8824
2.060800000e+08,-66.8241
2.064533333e+08,-62.8047
2.068266667e+08,-63.3407
2.072000000e+08,-54.3881
2.075733333e+08,-57.7416
2.079466667e+08,-71.9407
2.083200000e+08,-66.1958
2.086933333e+08,-64.4373
2.090666667e+08,-64.4838
2.094400000e+08,-73.1962
2.098133333e+08,-47.0487
2.101866667e+08,-46.8413
2.105600000e+08,-73.7415
2.109333333e+08,-74.5685
2.113066667e+08,-72.2156
2.116800000e+08,-74.111
2.120533333e+08,-70.882
2.124266667e+08,-54.4911
2.128000000e+08,-52.7476
2.131733333e+08,-62.3893
2.135466667e+08,-64.4306
2.139200000e+08,-65.1282
2.142933333e+08,-65.8774
2.146666667e+08,-63.8332
2.150400000e+08,-52.2951
2.154133333e+08,-46.7605
2.157866667e+08,-57.9642
2.161600000e+08,-60.2484
2.165333333e+08,-63.9008
2.169066667e+08,-67.5928
2.172800000e+08,-64.6467
2.176533333e+08,-63.8598
2.180266667e+08,-53.9804
2.184000000e+08,-61.0601
2.187733333e+08,-61.5125
2.191466667e+08,-66.8886
2.195200000e+08,-68.3361
2.198933333e+08,-66.0434
2.202666667e+08,-58.1272
2.206400000e+08,-49.0368
2.210133333e+08,-52.2886
2.213866667e+08,-52.9135
2.217600000e+08,-60.5101
2.221333333e+08,-61.1688
2.225066667e+08,-63.9928
2.228800000e+08,-62.5044
2.232533333e+08,-57.0422
2.236266667e+08,-57.033
2.240000000e+08,-57.255
2.243733333e+08,-63.4675
2.247466667e+08,-65.9434
2.251200000e+08,-63.746
2.254933333e+08,-62.1642
2.258666667e+08,-54.0465
2.262400000e+08,-52.2299
2.266133333e+08,-50.198
2.269866667e+08,-57.0149
2.273600000e+08,-60.7506
2.277333333e+08,-49.3555
2.281066667e+08,-47.3145
2.284800000e+08,-61.4149
2.288533333e+08,-58.4046
2.292266667e+08,-54.7337
2.296000000e+08,-59.9954
2.299733333e+08,-68.7244
2.303466667e+08,-67.5335
2.307200000e+08,-69.7318
2.310933333e+08,-62.5449
2.314666667e+08,-57.9064
2.318400000e+08,-47.6168
2.322133333e+08,-49.7503
2.325866667e+08,-60.5271
2.329600000e+08,-65.0872
2.333333333e+08,-63.769
2.337066667e+08,-70.0778
2.340800000e+08,-61.7721
2.344533333e+08,-53.5872
2.348266667e+08,-54.4828
2.352000000e+08,-75.7415
2.355733333e+08,-72.2418
2.359466667e+08,-72.5225
2.363200000e+08,-73.5167
2.366933333e+08,-76.327
2.370666667e+08,-47.9256
2.374400000e+08,-46.3178
2.378133333e+08,-62.2092
2.381866667e+08,-70.4098
2.385600000e+08,-70.9021
2.389333333e+08,-71.2979
2.393066667e+08,-69.0196
2.396800000e+08,-52.4694
2.400533333e+08,-49.7471
2.404266667e+08,-51.4827
2.408000000e+08,-72.8991
2.411733333e+08,-76.1535
2.415466667e+08,-78.6234
2.419200000e+08,-79.9219
2.422933333e+08,-54.881
2.426666667e+08,-46.3423
2.430400000e+08,-53.9351
2.434133333e+08,-67.4675
2.437866667e+08,-66.8078
2.441600000e+08,-70.131
2.445333333e+08,-69.8393
2.449066667e+08,-61.5611
2.452800000e+08,-53.606
2.456533333e+08,-56.253
2.460266667e+08,-65.9225
2.464000000e+08,-69.1179
2.467733333e+08,-67.4173
2.471466667e+08,-64.3208
2.475200000e+08,-60.3291
2.478933333e+08,-48.048
2.482666667e+08,-48.4695
2.486400000e+08,-55.7418
2.490133333e+08,-61.2429
2.493866667e+08,-68.3297
2.497600000e+08,-62.5153
2.501333333e+08,-62.3655
2.505066667e+08,-57.2291
2.508800000e+08,-55.4793
2.512533333e+08,-59.0979
2.516266667e+08,-58.1376
2.520000000e+08,-48.7828
2.523733333e+08,-55.708
2.527466667e+08,-60.8841
2.531200000e+08,-55.4702
2.534933333e+08,-51.3819
2.538666667e+08,-51.8774
2.542400000e+08,-55.2095
2.546133333e+08,-63.1767
2.549866667e+08,-65.948
2.553600000e+08,-63.3266
2.557333333e+08,-59.4168
2.561066667e+08,-57.5977
2.564800000e+08,-56.8904
2.568533333e+08,-58.8733
2.572266667e+08,-66.3425
2.576000000e+08,-67.3114
2.579733333e+08,-64.5728
2.583466667e+08,-60.7893
2.587200000e+08,-54.6982
2.590933333e+08,-49.52
2.594666667e+08,-50.5165
2.598400000e+08,-59.4638
2.602133333e+08,-63.361
2.605866667e+08,-62.8681
2.609600000e+08,-62.6032
2.613333333e+08,-64.6136
2.617066667e+08,-55.2055
2.620800000e+08,-53.831
2.624533333e+08,-64.9641
2.628266667e+08,-63.293
2.632000000e+08,-62.6714
2.635733333e+08,-62.6968
2.639466667e+08,-53.9301
2.643200000e+08,-52.3839
2.646933333e+08,-47.268
2.650666667e+08,-57.0806
2.654400000e+08,-64.0292
2.658133333e+08,-70.0651
2.661866667e+08,-70.8239
2.665600000e+08,-72.5282
2.669333333e+08,-66.6792
2.673066667e+08,-54.3292
2.676800000e+08,-61.3541
2.680533333e+08,-69.4415
2.684266667e+08,-73.093
2.688000000e+08,-75.6855
2.691733333e+08,-76.6496
2.695466667e+08,-64.5198
2.699200000e+08,-46.0619
2.702933333e+08,-49.6276
2.706666667e+08,-75.6385
2.710400000e+08,-74.9359
2.714133333e+08,-67.5161
2.717866667e+08,-66.0482
2.721600000e+08,-72.27
2.725333333e+08,-53.9429
2.729066667e+08,-54.9953
2.732800000e+08,-72.9506
2.736533333e+08,-72.0852
2.740266667e+08,-67.3004
2.744000000e+08,-67.8474
2.747733333e+08,-61.3893
2.751466667e+08,-49.8056
2.755200000e+08,-48.841
2.758933333e+08,-46.3719
2.762666667e+08,-48.5971
2.766400000e+08,-76.8836
2.770133333e+08,-73.4734
2.773866667e+08,-64.7518
2.777600000e+08,-58.948
2.781333333e+08,-54.4498
2.785066667e+08,-64.3958
2.788800000e+08,-65.0037
2.792533333e+08,-65.6024
2.796266667e+08,-63.5826
2.800000000e+08,-60.6695

