Model,MDO3104
Firmware Version,1.30

Waveform Type,RF_FD
Point Format,Y
Horizontal Units,Hz
Horizontal Scale,2.8e+07
,
Sample Interval,373333
Record Length,751
Gating,0.133155792277% to 100.0%
Probe Attenuation,1
Vertical Units,dBm
Vertical Offset,0
Vertical Scale,10
Vertical Position,0
Center Frequency,1.4e+08
Span,2.8e+08
Reference Level,-15
Label,
FREQUENCY,FD NORM
0.000000000e+00,-68.0475
3.733333333e+05,-78.642
7.466666667e+05,-77.4435
1.120000000e+06,-77.8837
1.493333333e+06,-68.9416
1.866666667e+06,-68.35
2.240000000e+06,-72.7994
2.613333333e+06,-65.6933
2.986666667e+06,-66.9748
3.360000000e+06,-59.6614
3.733333333e+06,-62.4892
4.106666667e+06,-68.1111
4.480000000e+06,-67.989
4.853333333e+06,-71.4585
5.226666667e+06,-70.103
5.600000000e+06,-68.2388
5.973333333e+06,-62.091
6.346666667e+06,-69.6524
6.720000000e+06,-83.234
7.093333333e+06,-74.1955
7.466666667e+06,-76.5036
7.840000000e+06,-71.7085
8.213333333e+06,-72.9939
8.586666667e+06,-72.9296
8.960000000e+06,-71.3992
9.333333333e+06,-68.8899
9.706666667e+06,-75.2017
1.008000000e+07,-70.3156
1.045333333e+07,-65.7742
1.082666667e+07,-73.4845
1.120000000e+07,-68.0724
1.157333333e+07,-67.6405
1.194666667e+07,-61.0423
1.232000000e+07,-62.0986
1.269333333e+07,-66.0743
1.306666667e+07,-71.2205
1.344000000e+07,-63.9943
1.381333333e+07,-63.9231
1.418666667e+07,-75.0789
1.456000000e+07,-74.3511
1.493333333e+07,-67.24
1.530666667e+07,-65.2541
1.568000000e+07,-70.0531
1.605333333e+07,-63.9519
1.642666667e+07,-68.8769
1.680000000e+07,-76.6207
1.717333333e+07,-69.9865
1.754666667e+07,-67.8621
1.792000000e+07,-58.2877
1.829333333e+07,-59.7208
1.866666667e+07,-71.3119
1.904000000e+07,-60.9655
1.941333333e+07,-61.7735
1.978666667e+07,-67.1651
2.016000000e+07,-68.8326
2.053333333e+07,-65.3099
2.090666667e+07,-69.1876
2.128000000e+07,-76.2137
2.165333333e+07,-71.7353
2.202666667e+07,-66.7659
2.240000000e+07,-65.6257
2.277333333e+07,-70.9747
2.314666667e+07,-73.0471
2.352000000e+07,-64.8799
2.389333333e+07,-65.3363
2.426666667e+07,-61.7363
2.464000000e+07,-55.4832
2.501333333e+07,-52.5112
2.538666667e+07,-64.3493
2.576000000e+07,-71.4065
2.613333333e+07,-66.0182
2.650666667e+07,-69.4164
2.688000000e+07,-70.9447
2.725333333e+07,-61.5168
2.762666667e+07,-64.316
2.800000000e+07,-74.1256
2.837333333e+07,-67.2331
2.874666667e+07,-67.1916
2.912000000e+07,-71.7543
2.949333333e+07,-76.4357
2.986666667e+07,-58.6857
3.024000000e+07,-59.5153
3.061333333e+07,-77.7811
3.098666667e+07,-71.3104
3.136000000e+07,-66.2918
3.173333333e+07,-71.1108
3.210666667e+07,-73.1132
3.248000000e+07,-59.8401
3.285333333e+07,-59.0634
3.322666667e+07,-71.1418
3.360000000e+07,-79.6848
3.397333333e+07,-78.8356
3.434666667e+07,-78.9422
3.472000000e+07,-70.392
3.509333333e+07,-62.2318
3.546666667e+07,-58.4501
3.584000000e+07,-52.4434
3.621333333e+07,-53.3782
3.658666667e+07,-76.6264
3.696000000e+07,-73.7384
3.733333333e+07,-74.184
3.770666667e+07,-71.2042
3.808000000e+07,-61.5413
3.845333333e+07,-67.2102
3.882666667e+07,-68.0896
3.920000000e+07,-75.5167
3.957333333e+07,-76.2949
3.994666667e+07,-71.054
4.032000000e+07,-69.9632
4.069333333e+07,-58.0529
4.106666667e+07,-60.0688
4.144000000e+07,-69.7597
4.181333333e+07,-54.6526
4.218666667e+07,-54.4056
4.256000000e+07,-68.2112
4.293333333e+07,-68.6039
4.330666667e+07,-60.2153
4.368000000e+07,-60.2338
4.405333333e+07,-62.3573
4.442666667e+07,-72.2379
4.480000000e+07,-72.7391
4.517333333e+07,-73.2396
4.554666667e+07,-72.3865
4.592000000e+07,-61.046
4.629333333e+07,-59.1511
4.666666667e+07,-58.7382
4.704000000e+07,-72.5747
4.741333333e+07,-71.9728
4.778666667e+07,-38.4184
4.816000000e+07,-37.7396
4.853333333e+07,-65.1788
4.890666667e+07,-60.8816
4.928000000e+07,-57.5892
4.965333333e+07,-67.3136
5.002666667e+07,-71.6525
5.040000000e+07,-71.3291
5.077333333e+07,-71.9702
5.114666667e+07,-68.0221
5.152000000e+07,-61.4762
5.189333333e+07,-55.4932
5.226666667e+07,-62.7113
5.264000000e+07,-77.1747
5.301333333e+07,-72.3916
5.338666667e+07,-77.598
5.376000000e+07,-50.5728
5.413333333e+07,-49.0949
5.450666667e+07,-56.1184
5.488000000e+07,-59.1342
5.525333333e+07,-71.1802
5.562666667e+07,-68.5663
5.600000000e+07,-69.9677
5.637333333e+07,-75.1179
5.674666667e+07,-68.5883
5.712000000e+07,-52.7255
5.749333333e+07,-52.7678
5.786666667e+07,-76.146
5.824000000e+07,-69.3441
5.861333333e+07,-78.4672
5.898666667e+07,-68.6836
5.936000000e+07,-74.1743
5.973333333e+07,-36.834
6.010666667e+07,-34.5499
6.048000000e+07,-53.631
6.085333333e+07,-67.5634
6.122666667e+07,-68.8853
6.160000000e+07,-72.777
6.197333333e+07,-73.4647
6.234666667e+07,-58.794
6.272000000e+07,-53.1101
6.309333333e+07,-66.0132
6.346666667e+07,-77.8671
6.384000000e+07,-74.4546
6.421333333e+07,-65.721
6.458666667e+07,-68.7823
6.496000000e+07,-62.858
6.533333333e+07,-54.683
6.570666667e+07,-49.5429
6.608000000e+07,-46.0213
6.645333333e+07,-60.7108
6.682666667e+07,-66.7628
6.720000000e+07,-67.0329
6.757333333e+07,-65.2569
6.794666667e+07,-54.8835
6.832000000e+07,-55.9613
6.869333333e+07,-65.8942
6.906666667e+07,-66.5343
6.944000000e+07,-71.9142
6.981333333e+07,-68.312
7.018666667e+07,-66.5698
7.056000000e+07,-57.2987
7.093333333e+07,-55.3516
7.130666667e+07,-58.8873
7.168000000e+07,-46.4169
7.205333333e+07,-42.3738
7.242666667e+07,-55.6131
7.280000000e+07,-65.2405
7.317333333e+07,-59.394
7.354666667e+07,-55.5018
7.392000000e+07,-57.1598
7.429333333e+07,-68.7568
7.466666667e+07,-65.3033
7.504000000e+07,-64.6265
7.541333333e+07,-68.0482
7.578666667e+07,-66.6448
7.616000000e+07,-57.1322
7.653333333e+07,-55.2908
7.690666667e+07,-61.8944
7.728000000e+07,-64.4807
7.765333333e+07,-53.255
7.802666667e+07,-48.1636
7.840000000e+07,-60.7393
7.877333333e+07,-61.7544
7.914666667e+07,-56.4097
7.952000000e+07,-60.249
7.989333333e+07,-69.3399
8.026666667e+07,-69.1176
8.064000000e+07,-70.2613
8.101333333e+07,-69.5127
8.138666667e+07,-59.8632
8.176000000e+07,-56.2672
8.213333333e+07,-57.4863
8.250666667e+07,-72.5218
8.288000000e+07,-66.905
8.325333333e+07,-69.0875
8.362666667e+07,-48.5528
8.400000000e+07,-40.1725
8.437333333e+07,-47.3336
8.474666667e+07,-52.6841
8.512000000e+07,-64.8815
8.549333333e+07,-63.6902
8.586666667e+07,-75.7259
8.624000000e+07,-69.8518
8.661333333e+07,-69.8245
8.698666667e+07,-57.7765
8.736000000e+07,-53.145
8.773333333e+07,-68.042
8.810666667e+07,-69.974
8.848000000e+07,-77.1792
8.885333333e+07,-76.4762
8.922666667e+07,-73.7213
8.960000000e+07,-58.9774
8.997333333e+07,-48.8595
9.034666667e+07,-55.4981
9.072000000e+07,-70.4767
9.109333333e+07,-73.4937
9.146666667e+07,-69.5412
9.184000000e+07,-68.5449
9.221333333e+07,-68.1892
9.258666667e+07,-53.8225
9.296000000e+07,-56.4486
9.333333333e+07,-79.7402
9.370666667e+07,-78.9877
9.408000000e+07,-73.7599
9.445333333e+07,-71.7417
9.482666667e+07,-67.1314
9.520000000e+07,-52.9258
9.557333333e+07,-52.3178
9.594666667e+07,-44.2618
9.632000000e+07,-48.5008
9.669333333e+07,-64.1519
9.706666667e+07,-65.1004
9.744000000e+07,-67.1504
9.781333333e+07,-56.6898
9.818666667e+07,-53.2636
9.856000000e+07,-62.0179
9.893333333e+07,-66.93
9.930666667e+07,-73.8372
9.968000000e+07,-69.1424
1.000533333e+08,-67.8036
1.004266667e+08,-58.4259
1.008000000e+08,-52.8796
1.011733333e+08,-56.4459
1.015466667e+08,-62.3506
1.019200000e+08,-53.4156
1.022933333e+08,-56.946
1.026666667e+08,-70.0826
1.030400000e+08,-66.0721
1.034133333e+08,-54.5635
1.037866667e+08,-55.9315
1.041600000e+08,-63.5695
1.045333333e+08,-64.5227
1.049066667e+08,-67.7593
1.052800000e+08,-62.4577
1.056533333e+08,-61.5049
1.060266667e+08,-54.3159
1.064000000e+08,-52.0469
1.067733333e+08,-53.7132
1.071466667e+08,-62.2089
1.075200000e+08,-66.6794
1.078933333e+08,-43.1674
1.082666667e+08,-45.2681
1.086400000e+08,-59.9122
1.090133333e+08,-55.1431
1.093866667e+08,-55.0801
1.097600000e+08,-66.6025
1.101333333e+08,-66.7638
1.105066667e+08,-70.1656
1.108800000e+08,-70.1832
1.112533333e+08,-64.3573
1.116266667e+08,-54.0754
1.120000000e+08,-51.7463
1.123733333e+08,-63.206
1.127466667e+08,-72.9057
1.131200000e+08,-69.4712
1.134933333e+08,-67.4402
1.138666667e+08,-62.2683
1.142400000e+08,-59.2023
1.146133333e+08,-53.3861
1.149866667e+08,-63.8595
1.153600000e+08,-68.2632
1.157333333e+08,-76.6598
1.161066667e+08,-70.1481
1.164800000e+08,-69.5219
1.168533333e+08,-62.9736
1.172266667e+08,-49.7899
1.176000000e+08,-53.6128
1.179733333e+08,-67.8687
1.183466667e+08,-66.6687
1.187200000e+08,-69.426
1.190933333e+08,-66.5954
1.194666667e+08,-59.4199
1.198400000e+08,-34.4089
1.202133333e+08,-35.2212
1.205866667e+08,-66.1363
1.209600000e+08,-70.3825
1.213333333e+08,-68.3842
1.217066667e+08,-72.3909
1.220800000e+08,-72.4932
1.224533333e+08,-49.8801
1.228266667e+08,-48.4855
1.232000000e+08,-63.5009
1.235733333e+08,-67.8913
1.239466667e+08,-72.0318
1.243200000e+08,-72.4893
1.246933333e+08,-66.5817
1.250666667e+08,-55.686
1.254400000e+08,-50.5186
1.258133333e+08,-53.5684
1.261866667e+08,-53.0467
1.265600000e+08,-69.9446
1.269333333e+08,-68.6826
1.273066667e+08,-69.7301
1.276800000e+08,-61.2589
1.280533333e+08,-50.661
1.284266667e+08,-55.4161
1.288000000e+08,-62.3749
1.291733333e+08,-70.1567
1.295466667e+08,-65.0599
1.299200000e+08,-64.7663
1.302933333e+08,-64.4816
1.306666667e+08,-52.8274
1.310400000e+08,-53.9408
1.314133333e+08,-61.0171
1.317866667e+08,-44.3308
1.321600000e+08,-43.71
1.325333333e+08,-65.5824
1.329066667e+08,-63.5819
1.332800000e+08,-51.6671
1.336533333e+08,-51.0595
1.340266667e+08,-53.0907
1.344000000e+08,-61.6334
1.347733333e+08,-65.836
1.351466667e+08,-63.7674
1.355200000e+08,-66.1033
1.358933333e+08,-58.3104
1.362666667e+08,-54.2809
1.366400000e+08,-53.9414
1.370133333e+08,-66.331
1.373866667e+08,-69.7868
1.377600000e+08,-67.7957
1.381333333e+08,-68.0706
1.385066667e+08,-63.7421
1.388800000e+08,-54.1695
1.392533333e+08,-50.2983
1.396266667e+08,-58.1611
1.400000000e+08,-63.0952
1.403733333e+08,-65.8497
1.407466667e+08,-62.9483
1.411200000e+08,-64.0212
1.414933333e+08,-55.7001
1.418666667e+08,-51.2741
1.422400000e+08,-57.2869
1.426133333e+08,-66.7135
1.429866667e+08,-65.0015
1.433600000e+08,-78.2697
1.437333333e+08,-48.0718
1.441066667e+08,-46.0287
1.444800000e+08,-48.211
1.448533333e+08,-49.6291
1.452266667e+08,-65.3891
1.456000000e+08,-69.6482
1.459733333e+08,-68.3463
1.463466667e+08,-68.0134
1.467200000e+08,-64.1749
1.470933333e+08,-51.8218
1.474666667e+08,-51.285
1.478400000e+08,-70.272
1.482133333e+08,-69.0333
1.485866667e+08,-75.4773
1.489600000e+08,-70.1461
1.493333333e+08,-69.1638
1.497066667e+08,-55.0021
1.500800000e+08,-51.1791
1.504533333e+08,-72.7842
1.508266667e+08,-65.7316
1.512000000e+08,-68.5631
1.515733333e+08,-69.1365
1.519466667e+08,-68.3088
1.523200000e+08,-58.805
1.526933333e+08,-50.3946
1.530666667e+08,-57.2913
1.534400000e+08,-68.286
1.538133333e+08,-72.1687
1.541866667e+08,-71.0093
1.545600000e+08,-70.2007
1.549333333e+08,-62.613
1.553066667e+08,-48.2666
1.556800000e+08,-45.1061
1.560533333e+08,-40.968
1.564266667e+08,-56.462
1.568000000e+08,-66.5004
1.571733333e+08,-64.2863
1.575466667e+08,-61.1442
1.579200000e+08,-51.4469
1.582933333e+08,-51.9308
1.586666667e+08,-60.6792
1.590400000e+08,-69.0057
1.594133333e+08,-73.247
1.597866667e+08,-70.2446
1.601600000e+08,-67.8559
1.605333333e+08,-51.1705
1.609066667e+08,-49.4295
1.612800000e+08,-54.7667
1.616533333e+08,-60.3035
1.620266667e+08,-61.7676
1.624000000e+08,-65.0672
1.627733333e+08,-65.6384
1.631466667e+08,-61.5093
1.635200000e+08,-54.5277
1.638933333e+08,-54.4983
1.642666667e+08,-63.3954
1.646400000e+08,-73.2378
1.650133333e+08,-71.0043
1.653866667e+08,-63.1208
1.657600000e+08,-60.5756
1.661333333e+08,-52.5295
1.665066667e+08,-50.3604
1.668800000e+08,-55.7974
1.672533333e+08,-62.0785
1.676266667e+08,-55.0742
1.680000000e+08,-48.2062
1.683733333e+08,-59.8446
1.687466667e+08,-55.4679
1.691200000e+08,-53.0605
1.694933333e+08,-56.7803
1.698666667e+08,-66.4128
1.702400000e+08,-71.054
1.706133333e+08,-65.1485
1.709866667e+08,-63.1198
1.713600000e+08,-56.16
1.717333333e+08,-46.9721
1.721066667e+08,-47.548
1.724800000e+08,-60.7981
1.728533333e+08,-61.7166
1.732266667e+08,-68.6986
1.736000000e+08,-64.558
1.739733333e+08,-60.5067
1.743466667e+08,-54.6978
1.747200000e+08,-52.5982
1.750933333e+08,-66.7234
1.754666667e+08,-74.7155
1.758400000e+08,-71.9844
1.762133333e+08,-72.2653
1.765866667e+08,-73.0439
1.769600000e+08,-53.3304
1.773333333e+08,-47.1108
1.777066667e+08,-59.3174
1.780800000e+08,-67.3788
1.784533333e+08,-68.3872
1.788266667e+08,-67.2825
1.792000000e+08,-67.277
1.795733333e+08,-53.3302
1.799466667e+08,-39.3644
1.803200000e+08,-44.7722
1.806933333e+08,-73.9539
1.810666667e+08,-70.4852
1.814400000e+08,-70.752
1.818133333e+08,-75.5025
1.821866667e+08,-69.609
1.825600000e+08,-46.8776
1.829333333e+08,-48.2506
1.833066667e+08,-67.2044
1.836800000e+08,-72.7633
1.840533333e+08,-69.2329
1.844266667e+08,-70.717
1.848000000e+08,-67.0715
1.851733333e+08,-52.906
1.855466667e+08,-51.6811
1.859200000e+08,-65.1175
1.862933333e+08,-64.6241
1.866666667e+08,-66.5318
1.870400000e+08,-67.1748
1.874133333e+08,-66.0877
1.877866667e+08,-51.0691
1.881600000e+08,-47.71
1.885333333e+08,-55.7584
1.889066667e+08,-65.7688
1.892800000e+08,-63.7703
1.896533333e+08,-63.6909
1.900266667e+08,-61.9009
1.904000000e+08,-62.1725
1.907733333e+08,-52.5771
1.911466667e+08,-56.3246
1.915200000e+08,-61.662
1.918933333e+08,-50.1346
1.922666667e+08,-53.6806
1.926400000e+08,-62.2493
1.930133333e+08,-61.2109
1.933866667e+08,-49.6182
1.937600000e+08,-50.5187
1.941333333e+08,-55.5732
1.945066667e+08,-60.8988
1.948800000e+08,-62.9005
1.952533333e+08,-63.9027
1.956266667e+08,-64.7737
1.960000000e+08,-58.6175
1.963733333e+08,-55.9731
1.967466667e+08,-58.5142
1.971200000e+08,-64.9073
1.974933333e+08,-64.109
1.978666667e+08,-63.1307
1.982400000e+08,-62.8974
1.986133333e+08,-55.6366
1.989866667e+08,-49.4937
1.993600000e+08,-48.6599
1.997333333e+08,-61.0602
2.001066667e+08,-61.1795
2.004800000e+08,-61.9477
2.008533333e+08,-61.1562
2.012266667e+08,-63.065
2.016000000e+08,-56.316
2.019733333e+08,-53.1515
2.023466667e+08,-69.2022
2.027200000e+08,-68.5046
2.030933333e+08,-66.7404
2.034666667e+08,-67.458
2.038400000e+08,-42.0115
2.042133333e+08,-42.8832
2.045866667e+08,-47.0582
2.049600000e+08,-55.0525
2.053333333e+08,-71.3787
2.057066667e+08,-66.8547
2.060800000e+08,-70.8619
2.064533333e+08,-66.8369
2.068266667e+08,-64.2989
2.072000000e+08,-54.3141
2.075733333e+08,-58.1339
2.079466667e+08,-69.2602
2.083200000e+08,-68.2926
2.086933333e+08,-68.1453
2.090666667e+08,-69.6567
2.094400000e+08,-65.5443
2.098133333e+08,-45.8215
2.101866667e+08,-46.0205
2.105600000e+08,-69.4145
2.109333333e+08,-67.2946
2.113066667e+08,-67.1964
2.116800000e+08,-69.258
2.120533333e+08,-72.7276
2.124266667e+08,-55.933
2.128000000e+08,-52.8114
2.131733333e+08,-65.426
2.135466667e+08,-59.7694
2.139200000e+08,-61.1532
2.142933333e+08,-64.3809
2.146666667e+08,-66.5638
2.150400000e+08,-53.3739
2.154133333e+08,-46.557
2.157866667e+08,-48.3462
2.161600000e+08,-49.0709
2.165333333e+08,-62.0353
2.169066667e+08,-61.3058
2.172800000e+08,-64.9504
2.176533333e+08,-64.8761
2.180266667e+08,-52.1698
2.184000000e+08,-55.0304
2.187733333e+08,-66.0613
2.191466667e+08,-64.2403
2.195200000e+08,-68.0406
2.198933333e+08,-64.6846
2.202666667e+08,-58.8841
2.206400000e+08,-47.0205
2.210133333e+08,-47.8057
2.213866667e+08,-56.4154
2.217600000e+08,-60.2166
2.221333333e+08,-58.9395
2.225066667e+08,-61.1826
2.228800000e+08,-61.9377
2.232533333e+08,-56.5795
2.236266667e+08,-55.2714
2.240000000e+08,-56.5787
2.243733333e+08,-61.7695
2.247466667e+08,-67.3186
2.251200000e+08,-67.2706
2.254933333e+08,-61.4605
2.258666667e+08,-53.3415
2.262400000e+08,-49.881
2.266133333e+08,-48.6959
2.269866667e+08,-57.8936
2.273600000e+08,-63.3116
2.277333333e+08,-45.2003
2.281066667e+08,-43.1084
2.284800000e+08,-58.5417
2.288533333e+08,-56.8459
2.292266667e+08,-53.6053
2.296000000e+08,-63.4147
2.299733333e+08,-68.5594
2.303466667e+08,-64.9306
2.307200000e+08,-63.7468
2.310933333e+08,-59.741
2.314666667e+08,-54.3768
2.318400000e+08,-46.9593
2.322133333e+08,-51.1208
2.325866667e+08,-64.705
2.329600000e+08,-65.9892
2.333333333e+08,-71.259
2.337066667e+08,-70.0342
2.340800000e+08,-62.7487
2.344533333e+08,-53.9776
2.348266667e+08,-55.271
2.352000000e+08,-67.5916
2.355733333e+08,-65.6839
2.359466667e+08,-70.0726
2.363200000e+08,-66.1991
2.366933333e+08,-71.644
2.370666667e+08,-47.1055
2.374400000e+08,-45.7658
2.378133333e+08,-66.7287
2.381866667e+08,-67.8289
2.385600000e+08,-70.1736
2.389333333e+08,-70.0761
2.393066667e+08,-74.1926
2.396800000e+08,-66.6251
2.400533333e+08,-51.0464
2.404266667e+08,-52.4451
2.408000000e+08,-72.8147
2.411733333e+08,-72.2443
2.415466667e+08,-71.4993
2.419200000e+08,-73.7651
2.422933333e+08,-57.0541
2.426666667e+08,-46.4157
2.430400000e+08,-52.7746
2.434133333e+08,-67.556
2.437866667e+08,-73.0405
2.441600000e+08,-75.3636
2.445333333e+08,-70.2036
2.449066667e+08,-70.0944
2.452800000e+08,-52.8585
2.456533333e+08,-54.5301
2.460266667e+08,-64.1379
2.464000000e+08,-68.723
2.467733333e+08,-63.7345
2.471466667e+08,-65.877
2.475200000e+08,-63.5216
2.478933333e+08,-47.8543
2.482666667e+08,-47.5275
2.486400000e+08,-57.2495
2.490133333e+08,-65.07
2.493866667e+08,-66.9334
2.497600000e+08,-67.293
2.501333333e+08,-63.3179
2.505066667e+08,-56.9189
2.508800000e+08,-53.4944
2.512533333e+08,-58.264
2.516266667e+08,-49.211
2.520000000e+08,-41.7368
2.523733333e+08,-48.9518
2.527466667e+08,-64.1918
2.531200000e+08,-55.9366
2.534933333e+08,-49.2452
2.538666667e+08,-51.5788
2.542400000e+08,-59.5805
2.546133333e+08,-61.8812
2.549866667e+08,-63.3339
2.553600000e+08,-63.5685
2.557333333e+08,-63.5515
2.561066667e+08,-56.6571
2.564800000e+08,-54.9685
2.568533333e+08,-61.2558
2.572266667e+08,-71.4062
2.576000000e+08,-71.6524
2.579733333e+08,-68.5878
2.583466667e+08,-60.7751
2.587200000e+08,-52.6734
2.590933333e+08,-48.5835
2.594666667e+08,-50.1997
2.598400000e+08,-63.2743
2.602133333e+08,-68.7204
2.605866667e+08,-70.9217
2.609600000e+08,-67.1911
2.613333333e+08,-64.3566
2.617066667e+08,-54.6765
2.620800000e+08,-54.4041
2.624533333e+08,-66.6306
2.628266667e+08,-67.1162
2.632000000e+08,-69.1771
2.635733333e+08,-59.2575
2.639466667e+08,-47.9101
2.643200000e+08,-51.0186
2.646933333e+08,-48.3597
2.650666667e+08,-60.4886
2.654400000e+08,-70.184
2.658133333e+08,-69.8013
2.661866667e+08,-74.9603
2.665600000e+08,-69.8143
2.669333333e+08,-61.2076
2.673066667e+08,-54.2169
2.676800000e+08,-64.7226
2.680533333e+08,-68.1954
2.684266667e+08,-72.8581
2.688000000e+08,-69.9491
2.691733333e+08,-71.7432
2.695466667e+08,-59.368
2.699200000e+08,-45.8044
2.702933333e+08,-49.5887
2.706666667e+08,-77.7907
2.710400000e+08,-76.4965
2.714133333e+08,-78.4399
2.717866667e+08,-77.422
2.721600000e+08,-75.2911
2.725333333e+08,-53.6585
2.729066667e+08,-54.3753
2.732800000e+08,-67.1647
2.736533333e+08,-71.9112
2.740266667e+08,-74.6289
2.744000000e+08,-71.4933
2.747733333e+08,-66.9516
2.751466667e+08,-49.5558
2.755200000e+08,-48.2088
2.758933333e+08,-42.9744
2.762666667e+08,-45.5266
2.766400000e+08,-70.2446
2.770133333e+08,-69.0998
2.773866667e+08,-67.0002
2.777600000e+08,-59.8695
2.781333333e+08,-54.1606
2.785066667e+08,-60.7896
2.788800000e+08,-72.9362
2.792533333e+08,-65.2609
2.796266667e+08,-65.42
2.800000000e+08,-66.5511

