Model,MDO3104
Firmware Version,1.30

Waveform Type,RF_FD
Point Format,Y
Horizontal Units,Hz
Horizontal Scale,2.8e+07
,
Sample Interval,373333
Record Length,751
Gating,0.133155792277% to 100.0%
Probe Attenuation,1
Vertical Units,dBm
Vertical Offset,0
Vertical Scale,10
Vertical Position,0
Center Frequency,1.4e+08
Span,2.8e+08
Reference Level,-15
Label,
FREQUENCY,FD NORM
0.000000000e+00,-65.2684
3.733333333e+05,-74.1891
7.466666667e+05,-76.4062
1.120000000e+06,-76.7459
1.493333333e+06,-67.1595
1.866666667e+06,-67.01
2.240000000e+06,-74.8695
2.613333333e+06,-64.7054
2.986666667e+06,-71.2804
3.360000000e+06,-62.2369
3.733333333e+06,-64.5047
4.106666667e+06,-65.7277
4.480000000e+06,-62.913
4.853333333e+06,-72.7309
5.226666667e+06,-67.4739
5.600000000e+06,-63.7839
5.973333333e+06,-58.095
6.346666667e+06,-64.23
6.720000000e+06,-69.302
7.093333333e+06,-70.8884
7.466666667e+06,-74.4314
7.840000000e+06,-68.6018
8.213333333e+06,-69.8256
8.586666667e+06,-75.3704
8.960000000e+06,-76.2377
9.333333333e+06,-79.6737
9.706666667e+06,-80.1236
1.008000000e+07,-66.813
1.045333333e+07,-67.2423
1.082666667e+07,-69.0845
1.120000000e+07,-71.7315
1.157333333e+07,-71.9264
1.194666667e+07,-66.8263
1.232000000e+07,-69.1089
1.269333333e+07,-68.3291
1.306666667e+07,-67.7971
1.344000000e+07,-63.4338
1.381333333e+07,-64.6774
1.418666667e+07,-67.7887
1.456000000e+07,-66.3915
1.493333333e+07,-71.3396
1.530666667e+07,-70.3551
1.568000000e+07,-72.9785
1.605333333e+07,-64.1009
1.642666667e+07,-64.366
1.680000000e+07,-71.7554
1.717333333e+07,-67.3403
1.754666667e+07,-66.2084
1.792000000e+07,-55.9241
1.829333333e+07,-58.5217
1.866666667e+07,-69.2514
1.904000000e+07,-62.4709
1.941333333e+07,-63.0355
1.978666667e+07,-63.9285
2.016000000e+07,-73.7724
2.053333333e+07,-69.4746
2.090666667e+07,-68.2516
2.128000000e+07,-63.9347
2.165333333e+07,-60.9122
2.202666667e+07,-60.7897
2.240000000e+07,-72.4744
2.277333333e+07,-70.6651
2.314666667e+07,-64.7502
2.352000000e+07,-62.7623
2.389333333e+07,-70.3741
2.426666667e+07,-69.4165
2.464000000e+07,-59.2758
2.501333333e+07,-52.0272
2.538666667e+07,-66.5061
2.576000000e+07,-70.3833
2.613333333e+07,-66.3858
2.650666667e+07,-65.8391
2.688000000e+07,-63.7584
2.725333333e+07,-59.3512
2.762666667e+07,-62.4839
2.800000000e+07,-71.0033
2.837333333e+07,-78.6503
2.874666667e+07,-68.7336
2.912000000e+07,-70.3388
2.949333333e+07,-71.3254
2.986666667e+07,-56.401
3.024000000e+07,-58.1511
3.061333333e+07,-73.6987
3.098666667e+07,-69.3253
3.136000000e+07,-77.505
3.173333333e+07,-68.2294
3.210666667e+07,-68.3847
3.248000000e+07,-62.1617
3.285333333e+07,-60.9133
3.322666667e+07,-74.3528
3.360000000e+07,-79.4926
3.397333333e+07,-76.8019
3.434666667e+07,-76.6829
3.472000000e+07,-72.9886
3.509333333e+07,-61.5742
3.546666667e+07,-57.5842
3.584000000e+07,-52.1618
3.621333333e+07,-52.6541
3.658666667e+07,-72.3559
3.696000000e+07,-72.7378
3.733333333e+07,-74.0152
3.770666667e+07,-70.6497
3.808000000e+07,-59.1044
3.845333333e+07,-62.3108
3.882666667e+07,-69.6879
3.920000000e+07,-69.732
3.957333333e+07,-74.6302
3.994666667e+07,-75.5796
4.032000000e+07,-74.7611
4.069333333e+07,-59.7458
4.106666667e+07,-59.9955
4.144000000e+07,-68.3726
4.181333333e+07,-54.7818
4.218666667e+07,-54.7827
4.256000000e+07,-71.963
4.293333333e+07,-71.2615
4.330666667e+07,-60.0663
4.368000000e+07,-59.1345
4.405333333e+07,-63.226
4.442666667e+07,-73.7636
4.480000000e+07,-76.8884
4.517333333e+07,-70.9491
4.554666667e+07,-71.7362
4.592000000e+07,-63.3115
4.629333333e+07,-57.3147
4.666666667e+07,-57.3471
4.704000000e+07,-69.9085
4.741333333e+07,-70.3172
4.778666667e+07,-37.867
4.816000000e+07,-37.0763
4.853333333e+07,-63.3878
4.890666667e+07,-61.4375
4.928000000e+07,-58.9036
4.965333333e+07,-74.6253
5.002666667e+07,-72.4533
5.040000000e+07,-70.8607
5.077333333e+07,-72.2684
5.114666667e+07,-73.5497
5.152000000e+07,-60.2854
5.189333333e+07,-55.5813
5.226666667e+07,-66.7883
5.264000000e+07,-72.7253
5.301333333e+07,-74.4915
5.338666667e+07,-75.2937
5.376000000e+07,-49.8944
5.413333333e+07,-48.4256
5.450666667e+07,-55.9823
5.488000000e+07,-58.5729
5.525333333e+07,-73.9101
5.562666667e+07,-70.06
5.600000000e+07,-69.9855
5.637333333e+07,-73.044
5.674666667e+07,-71.2659
5.712000000e+07,-52.3023
5.749333333e+07,-52.7322
5.786666667e+07,-80.2397
5.824000000e+07,-75.5855
5.861333333e+07,-76.6189
5.898666667e+07,-77.195
5.936000000e+07,-69.6341
5.973333333e+07,-36.7239
6.010666667e+07,-34.4437
6.048000000e+07,-54.8814
6.085333333e+07,-71.9093
6.122666667e+07,-72.7325
6.160000000e+07,-72.6873
6.197333333e+07,-74.0221
6.234666667e+07,-59.484
6.272000000e+07,-52.667
6.309333333e+07,-59.755
6.346666667e+07,-68.4318
6.384000000e+07,-68.3037
6.421333333e+07,-76.3697
6.458666667e+07,-77.6985
6.496000000e+07,-67.6559
6.533333333e+07,-53.8671
6.570666667e+07,-48.8703
6.608000000e+07,-46.3909
6.645333333e+07,-66.8746
6.682666667e+07,-66.1336
6.720000000e+07,-66.0415
6.757333333e+07,-73.7769
6.794666667e+07,-57.4318
6.832000000e+07,-56.9093
6.869333333e+07,-65.4841
6.906666667e+07,-68.5383
6.944000000e+07,-69.8307
6.981333333e+07,-72.2768
7.018666667e+07,-67.4431
7.056000000e+07,-56.9656
7.093333333e+07,-55.2359
7.130666667e+07,-60.097
7.168000000e+07,-46.6228
7.205333333e+07,-42.1733
7.242666667e+07,-55.9068
7.280000000e+07,-67.2395
7.317333333e+07,-62.4763
7.354666667e+07,-57.2047
7.392000000e+07,-58.0484
7.429333333e+07,-70.4211
7.466666667e+07,-65.1183
7.504000000e+07,-65.9995
7.541333333e+07,-67.5429
7.578666667e+07,-68.2973
7.616000000e+07,-56.0994
7.653333333e+07,-56.153
7.690666667e+07,-67.6004
7.728000000e+07,-71.885
7.765333333e+07,-53.9132
7.802666667e+07,-48.5591
7.840000000e+07,-60.8125
7.877333333e+07,-57.8519
7.914666667e+07,-54.3601
7.952000000e+07,-59.9397
7.989333333e+07,-67.2881
8.026666667e+07,-72.0167
8.064000000e+07,-66.9583
8.101333333e+07,-67.0773
8.138666667e+07,-63.7369
8.176000000e+07,-54.6572
8.213333333e+07,-55.9549
8.250666667e+07,-68.8252
8.288000000e+07,-69.035
8.325333333e+07,-67.3363
8.362666667e+07,-48.6196
8.400000000e+07,-40.3228
8.437333333e+07,-48.2088
8.474666667e+07,-52.947
8.512000000e+07,-67.9927
8.549333333e+07,-69.9561
8.586666667e+07,-73.6286
8.624000000e+07,-70.9368
8.661333333e+07,-69.6942
8.698666667e+07,-58.0428
8.736000000e+07,-54.7684
8.773333333e+07,-70.4465
8.810666667e+07,-72.0574
8.848000000e+07,-71.2357
8.885333333e+07,-73.9462
8.922666667e+07,-67.2103
8.960000000e+07,-62.8731
8.997333333e+07,-52.5325
9.034666667e+07,-59.1333
9.072000000e+07,-70.8418
9.109333333e+07,-76.7003
9.146666667e+07,-74.58
9.184000000e+07,-83.4695
9.221333333e+07,-75.3274
9.258666667e+07,-53.8251
9.296000000e+07,-56.1198
9.333333333e+07,-71.8518
9.370666667e+07,-74.1655
9.408000000e+07,-72.5889
9.445333333e+07,-69.7737
9.482666667e+07,-67.9264
9.520000000e+07,-52.8188
9.557333333e+07,-52.2231
9.594666667e+07,-47.1226
9.632000000e+07,-52.9482
9.669333333e+07,-70.3328
9.706666667e+07,-71.7486
9.744000000e+07,-67.8355
9.781333333e+07,-58.5667
9.818666667e+07,-54.3776
9.856000000e+07,-63.2277
9.893333333e+07,-64.6792
9.930666667e+07,-68.9222
9.968000000e+07,-68.821
1.000533333e+08,-69.4846
1.004266667e+08,-64.3269
1.008000000e+08,-52.547
1.011733333e+08,-54.5361
1.015466667e+08,-63.1691
1.019200000e+08,-55.1279
1.022933333e+08,-61.3818
1.026666667e+08,-63.587
1.030400000e+08,-65.3816
1.034133333e+08,-55.7826
1.037866667e+08,-56.1274
1.041600000e+08,-63.0429
1.045333333e+08,-67.7931
1.049066667e+08,-66.6314
1.052800000e+08,-68.7173
1.056533333e+08,-66.6706
1.060266667e+08,-54.1662
1.064000000e+08,-52.3179
1.067733333e+08,-56.7731
1.071466667e+08,-68.7157
1.075200000e+08,-58.7689
1.078933333e+08,-42.8127
1.082666667e+08,-44.8714
1.086400000e+08,-62.13
1.090133333e+08,-54.155
1.093866667e+08,-54.3676
1.097600000e+08,-66.6441
1.101333333e+08,-73.1665
1.105066667e+08,-69.8016
1.108800000e+08,-68.5052
1.112533333e+08,-63.5301
1.116266667e+08,-51.862
1.120000000e+08,-50.3183
1.123733333e+08,-68.3699
1.127466667e+08,-68.9559
1.131200000e+08,-69.1593
1.134933333e+08,-63.1964
1.138666667e+08,-58.2342
1.142400000e+08,-58.1711
1.146133333e+08,-52.052
1.149866667e+08,-59.1489
1.153600000e+08,-72.5599
1.157333333e+08,-71.8665
1.161066667e+08,-74.6192
1.164800000e+08,-71.6622
1.168533333e+08,-60.5236
1.172266667e+08,-49.2309
1.176000000e+08,-54.2014
1.179733333e+08,-67.9914
1.183466667e+08,-71.2162
1.187200000e+08,-68.6561
1.190933333e+08,-76.6261
1.194666667e+08,-58.1642
1.198400000e+08,-34.09
1.202133333e+08,-34.859
1.205866667e+08,-71.5278
1.209600000e+08,-78.0626
1.213333333e+08,-72.8582
1.217066667e+08,-69.068
1.220800000e+08,-68.1427
1.224533333e+08,-50.641
1.228266667e+08,-48.9286
1.232000000e+08,-64.035
1.235733333e+08,-72.0699
1.239466667e+08,-68.5685
1.243200000e+08,-68.979
1.246933333e+08,-69.9643
1.250666667e+08,-57.3763
1.254400000e+08,-51.1516
1.258133333e+08,-54.2585
1.261866667e+08,-55.0907
1.265600000e+08,-73.1937
1.269333333e+08,-69.3556
1.273066667e+08,-70.0697
1.276800000e+08,-65.4917
1.280533333e+08,-49.8314
1.284266667e+08,-52.2932
1.288000000e+08,-63.9801
1.291733333e+08,-62.69
1.295466667e+08,-67.035
1.299200000e+08,-67.252
1.302933333e+08,-66.8459
1.306666667e+08,-52.2872
1.310400000e+08,-53.4475
1.314133333e+08,-62.8679
1.317866667e+08,-44.3918
1.321600000e+08,-43.7964
1.325333333e+08,-66.1747
1.329066667e+08,-66.2514
1.332800000e+08,-53.4329
1.336533333e+08,-51.2998
1.340266667e+08,-52.8369
1.344000000e+08,-65.1728
1.347733333e+08,-66.1509
1.351466667e+08,-67.0224
1.355200000e+08,-69.9009
1.358933333e+08,-57.9747
1.362666667e+08,-53.6673
1.366400000e+08,-54.4402
1.370133333e+08,-66.7578
1.373866667e+08,-73.43
1.377600000e+08,-59.7589
1.381333333e+08,-60.3672
1.385066667e+08,-64.8802
1.388800000e+08,-51.5823
1.392533333e+08,-49.8963
1.396266667e+08,-63.1409
1.400000000e+08,-68.2616
1.403733333e+08,-64.7833
1.407466667e+08,-62.499
1.411200000e+08,-64.0171
1.414933333e+08,-56.1715
1.418666667e+08,-51.1037
1.422400000e+08,-58.3117
1.426133333e+08,-67.2284
1.429866667e+08,-65.1983
1.433600000e+08,-66.3669
1.437333333e+08,-46.5165
1.441066667e+08,-44.1053
1.444800000e+08,-48.1066
1.448533333e+08,-50.1069
1.452266667e+08,-62.9694
1.456000000e+08,-64.1452
1.459733333e+08,-66.0407
1.463466667e+08,-67.3983
1.467200000e+08,-71.0356
1.470933333e+08,-52.0191
1.474666667e+08,-51.4787
1.478400000e+08,-68.9999
1.482133333e+08,-75.8731
1.485866667e+08,-79.0991
1.489600000e+08,-69.5548
1.493333333e+08,-68.4352
1.497066667e+08,-54.5601
1.500800000e+08,-51.0971
1.504533333e+08,-67.8807
1.508266667e+08,-63.9361
1.512000000e+08,-67.701
1.515733333e+08,-70.5072
1.519466667e+08,-71.9375
1.523200000e+08,-60.6591
1.526933333e+08,-51.5072
1.530666667e+08,-58.2356
1.534400000e+08,-70.3732
1.538133333e+08,-72.0309
1.541866667e+08,-70.6036
1.545600000e+08,-71.4409
1.549333333e+08,-66.6876
1.553066667e+08,-47.7721
1.556800000e+08,-44.2197
1.560533333e+08,-40.7668
1.564266667e+08,-54.2889
1.568000000e+08,-66.016
1.571733333e+08,-63.5141
1.575466667e+08,-65.2072
1.579200000e+08,-51.9861
1.582933333e+08,-52.2397
1.586666667e+08,-65.0595
1.590400000e+08,-66.2697
1.594133333e+08,-66.8969
1.597866667e+08,-65.7621
1.601600000e+08,-66.5003
1.605333333e+08,-51.8914
1.609066667e+08,-48.8007
1.612800000e+08,-53.4712
1.616533333e+08,-63.8832
1.620266667e+08,-58.1375
1.624000000e+08,-64.6107
1.627733333e+08,-66.7782
1.631466667e+08,-61.851
1.635200000e+08,-52.9929
1.638933333e+08,-53.878
1.642666667e+08,-65.5487
1.646400000e+08,-65.7669
1.650133333e+08,-65.0105
1.653866667e+08,-65.5028
1.657600000e+08,-64.4989
1.661333333e+08,-49.9466
1.665066667e+08,-48.8214
1.668800000e+08,-60.638
1.672533333e+08,-61.251
1.676266667e+08,-53.8333
1.680000000e+08,-45.9577
1.683733333e+08,-54.1525
1.687466667e+08,-57.3542
1.691200000e+08,-53.2985
1.694933333e+08,-57.1969
1.698666667e+08,-68.0271
1.702400000e+08,-72.8124
1.706133333e+08,-71.1273
1.709866667e+08,-65.6081
1.713600000e+08,-57.4331
1.717333333e+08,-47.4901
1.721066667e+08,-48.4131
1.724800000e+08,-62.632
1.728533333e+08,-73.3959
1.732266667e+08,-73.9225
1.736000000e+08,-65.7285
1.739733333e+08,-60.826
1.743466667e+08,-52.3541
1.747200000e+08,-51.4366
1.750933333e+08,-69.1001
1.754666667e+08,-69.0645
1.758400000e+08,-69.12
1.762133333e+08,-70.9483
1.765866667e+08,-78.2798
1.769600000e+08,-52.2919
1.773333333e+08,-46.593
1.777066667e+08,-57.8926
1.780800000e+08,-76.5506
1.784533333e+08,-68.3815
1.788266667e+08,-67.7627
1.792000000e+08,-68.5133
1.795733333e+08,-61.4757
1.799466667e+08,-47.2101
1.803200000e+08,-51.6555
1.806933333e+08,-71.1716
1.810666667e+08,-74.846
1.814400000e+08,-69.1667
1.818133333e+08,-68.9771
1.821866667e+08,-67.8947
1.825600000e+08,-47.184
1.829333333e+08,-48.4078
1.833066667e+08,-67.0412
1.836800000e+08,-72.3021
1.840533333e+08,-70.2512
1.844266667e+08,-68.0237
1.848000000e+08,-67.5958
1.851733333e+08,-52.401
1.855466667e+08,-50.9273
1.859200000e+08,-60.9545
1.862933333e+08,-70.4705
1.866666667e+08,-70.0301
1.870400000e+08,-68.3321
1.874133333e+08,-65.2768
1.877866667e+08,-53.3903
1.881600000e+08,-47.7275
1.885333333e+08,-53.2945
1.889066667e+08,-61.976
1.892800000e+08,-64.4243
1.896533333e+08,-64.9528
1.900266667e+08,-68.9943
1.904000000e+08,-67.0922
1.907733333e+08,-53.3936
1.911466667e+08,-56.0878
1.915200000e+08,-63.3013
1.918933333e+08,-44.599
1.922666667e+08,-45.6519
1.926400000e+08,-64.2653
1.930133333e+08,-64.1087
1.933866667e+08,-48.9736
1.937600000e+08,-49.1665
1.941333333e+08,-55.1063
1.945066667e+08,-62.8008
1.948800000e+08,-66.1339
1.952533333e+08,-65.0846
1.956266667e+08,-63.9561
1.960000000e+08,-55.0148
1.963733333e+08,-54.3292
1.967466667e+08,-57.2598
1.971200000e+08,-67.2831
1.974933333e+08,-67.1436
1.978666667e+08,-64.6194
1.982400000e+08,-63.9403
1.986133333e+08,-55.3108
1.989866667e+08,-48.6716
1.993600000e+08,-48.9404
1.997333333e+08,-59.1217
2.001066667e+08,-68.6154
2.004800000e+08,-67.7724
2.008533333e+08,-66.7076
2.012266667e+08,-65.0296
2.016000000e+08,-55.44
2.019733333e+08,-53.8314
2.023466667e+08,-62.3212
2.027200000e+08,-67.8955
2.030933333e+08,-67.7351
2.034666667e+08,-61.5656
2.038400000e+08,-42.2359
2.042133333e+08,-42.984
2.045866667e+08,-47.1313
2.049600000e+08,-54.9815
2.053333333e+08,-65.974
2.057066667e+08,-67.5176
2.060800000e+08,-65.1857
2.064533333e+08,-68.8403
2.068266667e+08,-68.0139
2.072000000e+08,-50.7446
2.075733333e+08,-52.35
2.079466667e+08,-65.7795
2.083200000e+08,-64.1773
2.086933333e+08,-67.3394
2.090666667e+08,-80.6282
2.094400000e+08,-69.095
2.098133333e+08,-45.0156
2.101866667e+08,-45.1685
2.105600000e+08,-67.8034
2.109333333e+08,-65.3549
2.113066667e+08,-66.6017
2.116800000e+08,-65.7887
2.120533333e+08,-68.1948
2.124266667e+08,-55.5845
2.128000000e+08,-54.0892
2.131733333e+08,-67.815
2.135466667e+08,-65.0881
2.139200000e+08,-63.7202
2.142933333e+08,-69.6646
2.146666667e+08,-62.711
2.150400000e+08,-55.4296
2.154133333e+08,-46.9532
2.157866667e+08,-48.817
2.161600000e+08,-47.9883
2.165333333e+08,-67.7687
2.169066667e+08,-62.8028
2.172800000e+08,-63.089
2.176533333e+08,-64.7878
2.180266667e+08,-52.5007
2.184000000e+08,-54.6231
2.187733333e+08,-67.1364
2.191466667e+08,-66.3112
2.195200000e+08,-60.0524
2.198933333e+08,-59.6894
2.202666667e+08,-59.6529
2.206400000e+08,-47.8181
2.210133333e+08,-47.499
2.213866667e+08,-56.2055
2.217600000e+08,-64.2477
2.221333333e+08,-63.5346
2.225066667e+08,-70.5384
2.228800000e+08,-64.0395
2.232533333e+08,-58.5754
2.236266667e+08,-54.8365
2.240000000e+08,-56.9375
2.243733333e+08,-62.8644
2.247466667e+08,-65.4882
2.251200000e+08,-66.0448
2.254933333e+08,-63.8008
2.258666667e+08,-55.8683
2.262400000e+08,-48.0837
2.266133333e+08,-47.7233
2.269866667e+08,-61.9366
2.273600000e+08,-64.5469
2.277333333e+08,-46.1303
2.281066667e+08,-43.8071
2.284800000e+08,-64.3947
2.288533333e+08,-57.0671
2.292266667e+08,-54.7118
2.296000000e+08,-68.8785
2.299733333e+08,-65.3959
2.303466667e+08,-71.3089
2.307200000e+08,-72.5949
2.310933333e+08,-63.5235
2.314666667e+08,-52.4712
2.318400000e+08,-47.3481
2.322133333e+08,-53.6661
2.325866667e+08,-67.0917
2.329600000e+08,-68.6876
2.333333333e+08,-66.9997
2.337066667e+08,-65.964
2.340800000e+08,-62.3186
2.344533333e+08,-52.5605
2.348266667e+08,-53.9623
2.352000000e+08,-70.731
2.355733333e+08,-69.9959
2.359466667e+08,-73.0602
2.363200000e+08,-70.928
2.366933333e+08,-63.7917
2.370666667e+08,-46.8906
2.374400000e+08,-45.9055
2.378133333e+08,-72.4994
2.381866667e+08,-71.7528
2.385600000e+08,-71.1154
2.389333333e+08,-74.3682
2.393066667e+08,-71.6836
2.396800000e+08,-62.6168
2.400533333e+08,-49.7246
2.404266667e+08,-51.2485
2.408000000e+08,-77.1367
2.411733333e+08,-68.9765
2.415466667e+08,-70.3102
2.419200000e+08,-70.1383
2.422933333e+08,-58.4384
2.426666667e+08,-46.0862
2.430400000e+08,-51.208
2.434133333e+08,-68.1104
2.437866667e+08,-71.2679
2.441600000e+08,-68.7298
2.445333333e+08,-73.861
2.449066667e+08,-70.2375
2.452800000e+08,-52.9706
2.456533333e+08,-54.7654
2.460266667e+08,-63.8992
2.464000000e+08,-73.7033
2.467733333e+08,-72.838
2.471466667e+08,-66.7059
2.475200000e+08,-64.5788
2.478933333e+08,-48.0471
2.482666667e+08,-47.2337
2.486400000e+08,-57.8828
2.490133333e+08,-66.165
2.493866667e+08,-70.1674
2.497600000e+08,-67.2352
2.501333333e+08,-67.0368
2.505066667e+08,-57.9009
2.508800000e+08,-53.6676
2.512533333e+08,-57.5192
2.516266667e+08,-50.2792
2.520000000e+08,-42.5824
2.523733333e+08,-50.7415
2.527466667e+08,-64.3645
2.531200000e+08,-59.9012
2.534933333e+08,-49.0823
2.538666667e+08,-49.8038
2.542400000e+08,-62.8208
2.546133333e+08,-66.7775
2.549866667e+08,-66.3688
2.553600000e+08,-66.4978
2.557333333e+08,-63.0535
2.561066667e+08,-55.4655
2.564800000e+08,-55.7155
2.568533333e+08,-64.1482
2.572266667e+08,-68.0193
2.576000000e+08,-67.2336
2.579733333e+08,-61.1083
2.583466667e+08,-64.1682
2.587200000e+08,-52.939
2.590933333e+08,-48.403
2.594666667e+08,-51.3419
2.598400000e+08,-59.1201
2.602133333e+08,-67.3308
2.605866667e+08,-69.3032
2.609600000e+08,-71.3838
2.613333333e+08,-62.5231
2.617066667e+08,-53.9137
2.620800000e+08,-54.1643
2.624533333e+08,-67.7611
2.628266667e+08,-67.9934
2.632000000e+08,-73.88
2.635733333e+08,-57.7503
2.639466667e+08,-48.1508
2.643200000e+08,-49.7671
2.646933333e+08,-47.9477
2.650666667e+08,-63.6417
2.654400000e+08,-71.8305
2.658133333e+08,-70.7585
2.661866667e+08,-67.5424
2.665600000e+08,-68.2019
2.669333333e+08,-60.4919
2.673066667e+08,-53.6797
2.676800000e+08,-62.7678
2.680533333e+08,-69.6696
2.684266667e+08,-77.0506
2.688000000e+08,-70.9632
2.691733333e+08,-72.4714
2.695466667e+08,-66.6294
2.699200000e+08,-52.0421
2.702933333e+08,-55.3258
2.706666667e+08,-67.397
2.710400000e+08,-68.5649
2.714133333e+08,-68.8412
2.717866667e+08,-72.2745
2.721600000e+08,-69.108
2.725333333e+08,-54.0122
2.729066667e+08,-54.2388
2.732800000e+08,-78.6596
2.736533333e+08,-67.8284
2.740266667e+08,-72.0181
2.744000000e+08,-68.4227
2.747733333e+08,-69.3999
2.751466667e+08,-50.6448
2.755200000e+08,-48.2641
2.758933333e+08,-43.1051
2.762666667e+08,-45.5285
2.766400000e+08,-74.5994
2.770133333e+08,-71.3151
2.773866667e+08,-66.451
2.777600000e+08,-60.1226
2.781333333e+08,-53.7429
2.785066667e+08,-60.605
2.788800000e+08,-71.9377
2.792533333e+08,-67.4877
2.796266667e+08,-68.1194
2.800000000e+08,-72.4184

