Model,MDO3104
Firmware Version,1.30

Waveform Type,RF_FD
Point Format,Y
Horizontal Units,Hz
Horizontal Scale,2.8e+07
,
Sample Interval,373333
Record Length,751
Gating,0.133155792277% to 100.0%
Probe Attenuation,1
Vertical Units,dBm
Vertical Offset,0
Vertical Scale,10
Vertical Position,0
Center Frequency,1.4e+08
Span,2.8e+08
Reference Level,-15
Label,
FREQUENCY,FD NORM
0.000000000e+00,-62.2018
3.733333333e+05,-70.308
7.466666667e+05,-77.7648
1.120000000e+06,-75.1626
1.493333333e+06,-73.8248
1.866666667e+06,-77.3575
2.240000000e+06,-75.6131
2.613333333e+06,-62.3094
2.986666667e+06,-65.8134
3.360000000e+06,-61.3003
3.733333333e+06,-62.5264
4.106666667e+06,-65.0425
4.480000000e+06,-62.5145
4.853333333e+06,-68.0324
5.226666667e+06,-68.9099
5.600000000e+06,-68.3232
5.973333333e+06,-61.9104
6.346666667e+06,-68.1048
6.720000000e+06,-72.9103
7.093333333e+06,-68.267
7.466666667e+06,-72.2069
7.840000000e+06,-69.3313
8.213333333e+06,-70.6556
8.586666667e+06,-70.5708
8.960000000e+06,-73.0494
9.333333333e+06,-70.6323
9.706666667e+06,-70.0994
1.008000000e+07,-77.5446
1.045333333e+07,-74.3056
1.082666667e+07,-69.1045
1.120000000e+07,-76.5326
1.157333333e+07,-71.4947
1.194666667e+07,-60.2208
1.232000000e+07,-65.5824
1.269333333e+07,-69.738
1.306666667e+07,-68.8261
1.344000000e+07,-69.886
1.381333333e+07,-66.1058
1.418666667e+07,-72.0021
1.456000000e+07,-70.9361
1.493333333e+07,-69.274
1.530666667e+07,-68.567
1.568000000e+07,-66.0613
1.605333333e+07,-66.5178
1.642666667e+07,-62.1199
1.680000000e+07,-64.1197
1.717333333e+07,-69.1562
1.754666667e+07,-66.0616
1.792000000e+07,-57.0584
1.829333333e+07,-59.1111
1.866666667e+07,-74.3471
1.904000000e+07,-68.0542
1.941333333e+07,-66.4213
1.978666667e+07,-68.9164
2.016000000e+07,-66.3282
2.053333333e+07,-64.4867
2.090666667e+07,-65.3708
2.128000000e+07,-75.6099
2.165333333e+07,-62.8787
2.202666667e+07,-60.8772
2.240000000e+07,-75.9111
2.277333333e+07,-67.7564
2.314666667e+07,-65.0179
2.352000000e+07,-66.9441
2.389333333e+07,-72.3201
2.426666667e+07,-66.9773
2.464000000e+07,-63.3927
2.501333333e+07,-52.7046
2.538666667e+07,-59.7467
2.576000000e+07,-66.7132
2.613333333e+07,-64.8029
2.650666667e+07,-72.6167
2.688000000e+07,-74.2738
2.725333333e+07,-61.1004
2.762666667e+07,-63.4235
2.800000000e+07,-71.3363
2.837333333e+07,-68.0126
2.874666667e+07,-73.8352
2.912000000e+07,-71.0292
2.949333333e+07,-65.0016
2.986666667e+07,-54.935
3.024000000e+07,-56.1484
3.061333333e+07,-64.6405
3.098666667e+07,-70.7624
3.136000000e+07,-70.7793
3.173333333e+07,-80.2724
3.210666667e+07,-70.3249
3.248000000e+07,-61.5608
3.285333333e+07,-60.3944
3.322666667e+07,-65.386
3.360000000e+07,-79.3853
3.397333333e+07,-73.6684
3.434666667e+07,-71.5211
3.472000000e+07,-71.664
3.509333333e+07,-59.3501
3.546666667e+07,-56.0566
3.584000000e+07,-53.8263
3.621333333e+07,-53.5996
3.658666667e+07,-61.4627
3.696000000e+07,-65.201
3.733333333e+07,-69.305
3.770666667e+07,-66.5454
3.808000000e+07,-60.1823
3.845333333e+07,-65.1563
3.882666667e+07,-66.8345
3.920000000e+07,-67.5103
3.957333333e+07,-69.2586
3.994666667e+07,-69.0069
4.032000000e+07,-68.8706
4.069333333e+07,-58.9679
4.106666667e+07,-63.6658
4.144000000e+07,-68.2743
4.181333333e+07,-55.4529
4.218666667e+07,-56.4134
4.256000000e+07,-65.4526
4.293333333e+07,-68.5486
4.330666667e+07,-59.3879
4.368000000e+07,-59.6543
4.405333333e+07,-70.6284
4.442666667e+07,-64.835
4.480000000e+07,-60.8801
4.517333333e+07,-61.0394
4.554666667e+07,-66.5574
4.592000000e+07,-59.5995
4.629333333e+07,-57.4374
4.666666667e+07,-57.4875
4.704000000e+07,-58.4363
4.741333333e+07,-56.0809
4.778666667e+07,-38.8717
4.816000000e+07,-38.2154
4.853333333e+07,-55.0559
4.890666667e+07,-56.5673
4.928000000e+07,-57.7901
4.965333333e+07,-54.0138
5.002666667e+07,-58.1555
5.040000000e+07,-58.7081
5.077333333e+07,-59.4218
5.114666667e+07,-57.9465
5.152000000e+07,-57.2013
5.189333333e+07,-54.3281
5.226666667e+07,-56.6615
5.264000000e+07,-63.5542
5.301333333e+07,-63.2215
5.338666667e+07,-62.101
5.376000000e+07,-52.6952
5.413333333e+07,-52.3654
5.450666667e+07,-53.7828
5.488000000e+07,-55.641
5.525333333e+07,-62.2649
5.562666667e+07,-57.3359
5.600000000e+07,-61.1146
5.637333333e+07,-59.1809
5.674666667e+07,-61.7642
5.712000000e+07,-54.9443
5.749333333e+07,-56.2764
5.786666667e+07,-62.403
5.824000000e+07,-54.1639
5.861333333e+07,-58.6144
5.898666667e+07,-56.5855
5.936000000e+07,-53.9083
5.973333333e+07,-31.5535
6.010666667e+07,-29.6071
6.048000000e+07,-45.8971
6.085333333e+07,-54.8073
6.122666667e+07,-54.6998
6.160000000e+07,-53.4483
6.197333333e+07,-57.0734
6.234666667e+07,-58.9417
6.272000000e+07,-53.5984
6.309333333e+07,-57.9902
6.346666667e+07,-57.3752
6.384000000e+07,-61.4092
6.421333333e+07,-58.464
6.458666667e+07,-61.1252
6.496000000e+07,-62.3005
6.533333333e+07,-51.87
6.570666667e+07,-50.7284
6.608000000e+07,-48.5838
6.645333333e+07,-56.0996
6.682666667e+07,-59.5547
6.720000000e+07,-62.9599
6.757333333e+07,-59.5327
6.794666667e+07,-55.5271
6.832000000e+07,-56.527
6.869333333e+07,-56.8823
6.906666667e+07,-60.9628
6.944000000e+07,-64.7309
6.981333333e+07,-64.9438
7.018666667e+07,-59.162
7.056000000e+07,-58.1243
7.093333333e+07,-57.6858
7.130666667e+07,-59.7568
7.168000000e+07,-46.2855
7.205333333e+07,-43.3585
7.242666667e+07,-53.4423
7.280000000e+07,-60.5644
7.317333333e+07,-63.3642
7.354666667e+07,-61.2179
7.392000000e+07,-58.9818
7.429333333e+07,-63.5186
7.466666667e+07,-60.7651
7.504000000e+07,-59.1116
7.541333333e+07,-63.4633
7.578666667e+07,-69.173
7.616000000e+07,-59.8086
7.653333333e+07,-58.4413
7.690666667e+07,-66.5991
7.728000000e+07,-61.6087
7.765333333e+07,-56.5466
7.802666667e+07,-50.7029
7.840000000e+07,-57.5997
7.877333333e+07,-60.1819
7.914666667e+07,-56.4554
7.952000000e+07,-59.1805
7.989333333e+07,-65.8512
8.026666667e+07,-61.4993
8.064000000e+07,-64.6829
8.101333333e+07,-64.7355
8.138666667e+07,-70.1446
8.176000000e+07,-56.8707
8.213333333e+07,-58.4468
8.250666667e+07,-62.1485
8.288000000e+07,-61.0695
8.325333333e+07,-61.6732
8.362666667e+07,-48.9718
8.400000000e+07,-42.8537
8.437333333e+07,-48.2373
8.474666667e+07,-53.2704
8.512000000e+07,-61.0299
8.549333333e+07,-59.0664
8.586666667e+07,-60.1071
8.624000000e+07,-67.9549
8.661333333e+07,-71.1887
8.698666667e+07,-62.0771
8.736000000e+07,-55.1893
8.773333333e+07,-71.1719
8.810666667e+07,-62.2362
8.848000000e+07,-68.3296
8.885333333e+07,-70.9052
8.922666667e+07,-71.6974
8.960000000e+07,-60.5836
8.997333333e+07,-51.8881
9.034666667e+07,-57.8847
9.072000000e+07,-71.5956
9.109333333e+07,-72.4252
9.146666667e+07,-71.5283
9.184000000e+07,-69.6362
9.221333333e+07,-62.9762
9.258666667e+07,-54.0707
9.296000000e+07,-57.2984
9.333333333e+07,-66.0697
9.370666667e+07,-68.8607
9.408000000e+07,-68.2178
9.445333333e+07,-64.7318
9.482666667e+07,-62.8181
9.520000000e+07,-55.4213
9.557333333e+07,-55.8231
9.594666667e+07,-45.7588
9.632000000e+07,-48.3692
9.669333333e+07,-65.9693
9.706666667e+07,-60.2775
9.744000000e+07,-61.483
9.781333333e+07,-57.9354
9.818666667e+07,-56.7124
9.856000000e+07,-58.3644
9.893333333e+07,-63.6137
9.930666667e+07,-67.2495
9.968000000e+07,-63.714
1.000533333e+08,-61.7398
1.004266667e+08,-59.4817
1.008000000e+08,-55.0914
1.011733333e+08,-55.9899
1.015466667e+08,-61.8537
1.019200000e+08,-53.8101
1.022933333e+08,-56.0764
1.026666667e+08,-62.8546
1.030400000e+08,-60.1963
1.034133333e+08,-54.9121
1.037866667e+08,-57.7882
1.041600000e+08,-61.8508
1.045333333e+08,-67.003
1.049066667e+08,-61.5908
1.052800000e+08,-61.5586
1.056533333e+08,-61.5988
1.060266667e+08,-58.3127
1.064000000e+08,-53.4661
1.067733333e+08,-55.5846
1.071466667e+08,-63.5275
1.075200000e+08,-61.5553
1.078933333e+08,-44.8327
1.082666667e+08,-47.1265
1.086400000e+08,-61.4781
1.090133333e+08,-56.832
1.093866667e+08,-54.2658
1.097600000e+08,-74.5261
1.101333333e+08,-61.2498
1.105066667e+08,-60.9342
1.108800000e+08,-66.9455
1.112533333e+08,-62.336
1.116266667e+08,-56.6548
1.120000000e+08,-50.8142
1.123733333e+08,-63.7808
1.127466667e+08,-63.4183
1.131200000e+08,-62.2033
1.134933333e+08,-63.7988
1.138666667e+08,-66.3125
1.142400000e+08,-61.3584
1.146133333e+08,-52.675
1.149866667e+08,-61.6071
1.153600000e+08,-68.5033
1.157333333e+08,-64.9566
1.161066667e+08,-64.955
1.164800000e+08,-69.4931
1.168533333e+08,-63.879
1.172266667e+08,-49.4398
1.176000000e+08,-53.507
1.179733333e+08,-66.8675
1.183466667e+08,-64.7604
1.187200000e+08,-67.1868
1.190933333e+08,-68.0476
1.194666667e+08,-58.2273
1.198400000e+08,-35.1992
1.202133333e+08,-35.8596
1.205866667e+08,-66.9956
1.209600000e+08,-66.4313
1.213333333e+08,-65.1646
1.217066667e+08,-62.5845
1.220800000e+08,-61.8029
1.224533333e+08,-51.5207
1.228266667e+08,-49.9922
1.232000000e+08,-62.2684
1.235733333e+08,-68.4467
1.239466667e+08,-67.6449
1.243200000e+08,-69.056
1.246933333e+08,-64.0096
1.250666667e+08,-56.6711
1.254400000e+08,-51.2174
1.258133333e+08,-58.7049
1.261866667e+08,-57.582
1.265600000e+08,-62.5643
1.269333333e+08,-64.1282
1.273066667e+08,-59.244
1.276800000e+08,-56.1958
1.280533333e+08,-50.0423
1.284266667e+08,-55.1852
1.288000000e+08,-57.3756
1.291733333e+08,-61.0214
1.295466667e+08,-61.9178
1.299200000e+08,-58.5357
1.302933333e+08,-58.5819
1.306666667e+08,-53.2474
1.310400000e+08,-55.8259
1.314133333e+08,-60.0445
1.317866667e+08,-59.586
1.321600000e+08,-59.6197
1.325333333e+08,-60.9538
1.329066667e+08,-60.6877
1.332800000e+08,-52.3039
1.336533333e+08,-53.4463
1.340266667e+08,-53.7522
1.344000000e+08,-63.0123
1.347733333e+08,-59.8744
1.351466667e+08,-59.2496
1.355200000e+08,-60.1236
1.358933333e+08,-58.7377
1.362666667e+08,-56.6742
1.366400000e+08,-54.241
1.370133333e+08,-63.6398
1.373866667e+08,-62.2715
1.377600000e+08,-68.6237
1.381333333e+08,-61.6518
1.385066667e+08,-59.4942
1.388800000e+08,-56.1068
1.392533333e+08,-50.2016
1.396266667e+08,-56.1962
1.400000000e+08,-63.3445
1.403733333e+08,-59.6186
1.407466667e+08,-59.1112
1.411200000e+08,-61.9491
1.414933333e+08,-65.1388
1.418666667e+08,-52.1295
1.422400000e+08,-57.7321
1.426133333e+08,-62.4347
1.429866667e+08,-62.342
1.433600000e+08,-61.9623
1.437333333e+08,-47.514
1.441066667e+08,-44.8447
1.444800000e+08,-50.2423
1.448533333e+08,-51.421
1.452266667e+08,-63.2089
1.456000000e+08,-58.6437
1.459733333e+08,-65.1324
1.463466667e+08,-68.7752
1.467200000e+08,-68.0195
1.470933333e+08,-52.7491
1.474666667e+08,-52.2305
1.478400000e+08,-71.0777
1.482133333e+08,-69.8552
1.485866667e+08,-68.5058
1.489600000e+08,-70.3317
1.493333333e+08,-70.8121
1.497066667e+08,-52.3918
1.500800000e+08,-48.2034
1.504533333e+08,-64.7727
1.508266667e+08,-68.0779
1.512000000e+08,-66.9886
1.515733333e+08,-68.2051
1.519466667e+08,-70.9747
1.523200000e+08,-58.1818
1.526933333e+08,-51.614
1.530666667e+08,-62.553
1.534400000e+08,-63.048
1.538133333e+08,-69.051
1.541866667e+08,-68.9862
1.545600000e+08,-58.6887
1.549333333e+08,-57.9931
1.553066667e+08,-51.0262
1.556800000e+08,-46.4324
1.560533333e+08,-41.6741
1.564266667e+08,-53.0695
1.568000000e+08,-60.8884
1.571733333e+08,-57.5771
1.575466667e+08,-57.4869
1.579200000e+08,-54.0229
1.582933333e+08,-55.6631
1.586666667e+08,-63.041
1.590400000e+08,-65.7664
1.594133333e+08,-63.2658
1.597866667e+08,-62.9565
1.601600000e+08,-60.9904
1.605333333e+08,-50.9892
1.609066667e+08,-50.3222
1.612800000e+08,-54.2008
1.616533333e+08,-62.6701
1.620266667e+08,-58.0196
1.624000000e+08,-60.5809
1.627733333e+08,-58.0297
1.631466667e+08,-59
1.635200000e+08,-55.8108
1.638933333e+08,-53.8572
1.642666667e+08,-63.7492
1.646400000e+08,-64.9235
1.650133333e+08,-65.1747
1.653866667e+08,-59.1892
1.657600000e+08,-58.1338
1.661333333e+08,-53.9566
1.665066667e+08,-50.3137
1.668800000e+08,-54.6656
1.672533333e+08,-60.9047
1.676266667e+08,-58.3616
1.680000000e+08,-50.9127
1.683733333e+08,-59.0365
1.687466667e+08,-61.5549
1.691200000e+08,-52.622
1.694933333e+08,-54.5584
1.698666667e+08,-65.5763
1.702400000e+08,-59.0962
1.706133333e+08,-58.7185
1.709866667e+08,-60.8627
1.713600000e+08,-59.3454
1.717333333e+08,-48.1977
1.721066667e+08,-48.0125
1.724800000e+08,-62.7226
1.728533333e+08,-62.4119
1.732266667e+08,-65.0198
1.736000000e+08,-60.6676
1.739733333e+08,-65.5767
1.743466667e+08,-54.0461
1.747200000e+08,-51.4462
1.750933333e+08,-65.6853
1.754666667e+08,-66.3865
1.758400000e+08,-62.297
1.762133333e+08,-62.1462
1.765866667e+08,-68.6621
1.769600000e+08,-53.5625
1.773333333e+08,-47.5053
1.777066667e+08,-58.9548
1.780800000e+08,-62.0036
1.784533333e+08,-62.1593
1.788266667e+08,-64.006
1.792000000e+08,-65.0429
1.795733333e+08,-59.2842
1.799466667e+08,-54.7011
1.803200000e+08,-58.5478
1.806933333e+08,-64.1092
1.810666667e+08,-63.4561
1.814400000e+08,-70.674
1.818133333e+08,-66.3512
1.821866667e+08,-62.8276
1.825600000e+08,-47.4701
1.829333333e+08,-49.184
1.833066667e+08,-60.3041
1.836800000e+08,-68.2573
1.840533333e+08,-67.5527
1.844266667e+08,-64.9066
1.848000000e+08,-62.5653
1.851733333e+08,-53.1728
1.855466667e+08,-52.5769
1.859200000e+08,-60.6964
1.862933333e+08,-63.3279
1.866666667e+08,-67.3503
1.870400000e+08,-64.4509
1.874133333e+08,-57.1003
1.877866667e+08,-50.0016
1.881600000e+08,-47.9713
1.885333333e+08,-52.8524
1.889066667e+08,-58.8019
1.892800000e+08,-66.4077
1.896533333e+08,-64.2592
1.900266667e+08,-59.8493
1.904000000e+08,-59.5293
1.907733333e+08,-55.616
1.911466667e+08,-56.0573
1.915200000e+08,-64.7202
1.918933333e+08,-46.599
1.922666667e+08,-47.2894
1.926400000e+08,-56.1476
1.930133333e+08,-59.2807
1.933866667e+08,-51.9772
1.937600000e+08,-51.3139
1.941333333e+08,-53.1597
1.945066667e+08,-61.6007
1.948800000e+08,-58.414
1.952533333e+08,-56.8428
1.956266667e+08,-59.2834
1.960000000e+08,-57.1904
1.963733333e+08,-53.7668
1.967466667e+08,-53.4838
1.971200000e+08,-67.5757
1.974933333e+08,-64.9665
1.978666667e+08,-63.5378
1.982400000e+08,-58.905
1.986133333e+08,-55.2807
1.989866667e+08,-49.4506
1.993600000e+08,-47.6477
1.997333333e+08,-61.9556
2.001066667e+08,-61.7502
2.004800000e+08,-60.2713
2.008533333e+08,-58.015
2.012266667e+08,-60.7937
2.016000000e+08,-57.0358
2.019733333e+08,-52.4691
2.023466667e+08,-63.246
2.027200000e+08,-66.3279
2.030933333e+08,-61.6231
2.034666667e+08,-56.133
2.038400000e+08,-46.4733
2.042133333e+08,-46.6509
2.045866667e+08,-46.6863
2.049600000e+08,-52.8821
2.053333333e+08,-62.6459
2.057066667e+08,-60.6463
2.060800000e+08,-65.9416
2.064533333e+08,-66.1467
2.068266667e+08,-68.2062
2.072000000e+08,-53.7814
2.075733333e+08,-56.2517
2.079466667e+08,-64.3761
2.083200000e+08,-62.0201
2.086933333e+08,-63.8973
2.090666667e+08,-60.3048
2.094400000e+08,-61.8738
2.098133333e+08,-47.3487
2.101866667e+08,-47.5221
2.105600000e+08,-62.4455
2.109333333e+08,-62.47
2.113066667e+08,-62.6128
2.116800000e+08,-73.9736
2.120533333e+08,-62.2011
2.124266667e+08,-52.6515
2.128000000e+08,-51.1724
2.131733333e+08,-62.8444
2.135466667e+08,-64.5181
2.139200000e+08,-69.4727
2.142933333e+08,-68.606
2.146666667e+08,-58.4935
2.150400000e+08,-51.5955
2.154133333e+08,-47.5909
2.157866667e+08,-49.1378
2.161600000e+08,-48.3036
2.165333333e+08,-62.605
2.169066667e+08,-61.4497
2.172800000e+08,-59.7243
2.176533333e+08,-59.2228
2.180266667e+08,-53.9829
2.184000000e+08,-56.7421
2.187733333e+08,-57.8433
2.191466667e+08,-63.376
2.195200000e+08,-62.5583
2.198933333e+08,-55.4465
2.202666667e+08,-55.9546
2.206400000e+08,-49.8101
2.210133333e+08,-52.4499
2.213866667e+08,-53.1633
2.217600000e+08,-64.2423
2.221333333e+08,-63.2088
2.225066667e+08,-64.3356
2.228800000e+08,-62.5463
2.232533333e+08,-55.0412
2.236266667e+08,-54.633
2.240000000e+08,-56.0494
2.243733333e+08,-64.7305
2.247466667e+08,-64.4408
2.251200000e+08,-58.9219
2.254933333e+08,-55.9895
2.258666667e+08,-55.8218
2.262400000e+08,-53.7413
2.266133333e+08,-48.3377
2.269866667e+08,-57.2912
2.273600000e+08,-65.193
2.277333333e+08,-46.6704
2.281066667e+08,-44.6034
2.284800000e+08,-69.4561
2.288533333e+08,-64.2412
2.292266667e+08,-52.7612
2.296000000e+08,-60.5306
2.299733333e+08,-62.6383
2.303466667e+08,-61.5044
2.307200000e+08,-60.1734
2.310933333e+08,-59.2502
2.314666667e+08,-58.078
2.318400000e+08,-46.8785
2.322133333e+08,-49.6501
2.325866667e+08,-59.4755
2.329600000e+08,-61.3399
2.333333333e+08,-62.0127
2.337066667e+08,-61.3058
2.340800000e+08,-66.2158
2.344533333e+08,-52.5378
2.348266667e+08,-54.2126
2.352000000e+08,-64.1013
2.355733333e+08,-65.4317
2.359466667e+08,-63.1152
2.363200000e+08,-62.9504
2.366933333e+08,-64.7137
2.370666667e+08,-48.0898
2.374400000e+08,-46.5729
2.378133333e+08,-66.9941
2.381866667e+08,-63.8577
2.385600000e+08,-67.3904
2.389333333e+08,-66.8593
2.393066667e+08,-62.342
2.396800000e+08,-60.2485
2.400533333e+08,-48.3922
2.404266667e+08,-51.467
2.408000000e+08,-62.3676
2.411733333e+08,-63.1208
2.415466667e+08,-64.5251
2.419200000e+08,-62.1074
2.422933333e+08,-57.1035
2.426666667e+08,-47.4378
2.430400000e+08,-57.1564
2.434133333e+08,-63.4144
2.437866667e+08,-69.7113
2.441600000e+08,-65.3991
2.445333333e+08,-62.769
2.449066667e+08,-63.3392
2.452800000e+08,-52.9045
2.456533333e+08,-56.7422
2.460266667e+08,-62.9887
2.464000000e+08,-71.156
2.467733333e+08,-70.7147
2.471466667e+08,-62.5839
2.475200000e+08,-56.6565
2.478933333e+08,-48.3862
2.482666667e+08,-49.1653
2.486400000e+08,-54.8912
2.490133333e+08,-65.5661
2.493866667e+08,-64.8849
2.497600000e+08,-59.6537
2.501333333e+08,-57.2026
2.505066667e+08,-56.4954
2.508800000e+08,-55.7849
2.512533333e+08,-57.7399
2.516266667e+08,-62.7282
2.520000000e+08,-54.4938
2.523733333e+08,-58.2874
2.527466667e+08,-56.4611
2.531200000e+08,-55.6156
2.534933333e+08,-51.8849
2.538666667e+08,-50.705
2.542400000e+08,-56.1224
2.546133333e+08,-65.5091
2.549866667e+08,-59.8355
2.553600000e+08,-56.8863
2.557333333e+08,-58.8222
2.561066667e+08,-58.7858
2.564800000e+08,-54.7022
2.568533333e+08,-57.6465
2.572266667e+08,-64.651
2.576000000e+08,-65.4723
2.579733333e+08,-60.5485
2.583466667e+08,-58.3178
2.587200000e+08,-55.489
2.590933333e+08,-47.9724
2.594666667e+08,-48.8938
2.598400000e+08,-61.448
2.602133333e+08,-63.2297
2.605866667e+08,-61.3788
2.609600000e+08,-60.4373
2.613333333e+08,-66.5982
2.617066667e+08,-54.1691
2.620800000e+08,-53.157
2.624533333e+08,-66.5681
2.628266667e+08,-66.1794
2.632000000e+08,-61.8843
2.635733333e+08,-54.3297
2.639466667e+08,-49.2452
2.643200000e+08,-52.2751
2.646933333e+08,-47.4227
2.650666667e+08,-62.8645
2.654400000e+08,-62.3043
2.658133333e+08,-62.3523
2.661866667e+08,-65.4913
2.665600000e+08,-68.1109
2.669333333e+08,-61.3663
2.673066667e+08,-53.3562
2.676800000e+08,-63.0003
2.680533333e+08,-64.3795
2.684266667e+08,-63.0697
2.688000000e+08,-64.2578
2.691733333e+08,-66.3665
2.695466667e+08,-62.8462
2.699200000e+08,-50.7676
2.702933333e+08,-54.3422
2.706666667e+08,-63.7192
2.710400000e+08,-69.4826
2.714133333e+08,-67.984
2.717866667e+08,-64.5175
2.721600000e+08,-61.7503
2.725333333e+08,-54.6709
2.729066667e+08,-56.0907
2.732800000e+08,-61.3375
2.736533333e+08,-66.4975
2.740266667e+08,-69.6108
2.744000000e+08,-65.3748
2.747733333e+08,-59.2209
2.751466667e+08,-50.0787
2.755200000e+08,-48.8904
2.758933333e+08,-43.1403
2.762666667e+08,-44.8197
2.766400000e+08,-69.7057
2.770133333e+08,-65.1688
2.773866667e+08,-56.9695
2.777600000e+08,-57.9412
2.781333333e+08,-55.4801
2.785066667e+08,-59.5214
2.788800000e+08,-65.9585
2.792533333e+08,-71.0627
2.796266667e+08,-64.8139
2.800000000e+08,-58.2682

