Model,MDO3104
Firmware Version,1.30

Waveform Type,RF_FD
Point Format,Y
Horizontal Units,Hz
Horizontal Scale,2.8e+07
,
Sample Interval,373333
Record Length,751
Gating,0.133155792277% to 100.0%
Probe Attenuation,1
Vertical Units,dBm
Vertical Offset,0
Vertical Scale,10
Vertical Position,0
Center Frequency,1.4e+08
Span,2.8e+08
Reference Level,-15
Label,
FREQUENCY,FD NORM
0.000000000e+00,-69.0954
3.733333333e+05,-76.7777
7.466666667e+05,-76.561
1.120000000e+06,-75.553
1.493333333e+06,-69.6971
1.866666667e+06,-69.5579
2.240000000e+06,-72.6499
2.613333333e+06,-73.9949
2.986666667e+06,-68.3025
3.360000000e+06,-62.2413
3.733333333e+06,-65.7396
4.106666667e+06,-62.4141
4.480000000e+06,-62.5401
4.853333333e+06,-73.6102
5.226666667e+06,-64.4406
5.600000000e+06,-68.1231
5.973333333e+06,-65.4683
6.346666667e+06,-71.4279
6.720000000e+06,-74.0449
7.093333333e+06,-68.1662
7.466666667e+06,-67.1459
7.840000000e+06,-66.1332
8.213333333e+06,-70.2097
8.586666667e+06,-69.9202
8.960000000e+06,-66.6345
9.333333333e+06,-65.1202
9.706666667e+06,-68.2811
1.008000000e+07,-67.5048
1.045333333e+07,-64.4651
1.082666667e+07,-67.3704
1.120000000e+07,-69.0037
1.157333333e+07,-72.079
1.194666667e+07,-59.6542
1.232000000e+07,-60.7812
1.269333333e+07,-70.4969
1.306666667e+07,-67.3998
1.344000000e+07,-65.8507
1.381333333e+07,-63.6673
1.418666667e+07,-65.4961
1.456000000e+07,-69.0233
1.493333333e+07,-70.165
1.530666667e+07,-65.5669
1.568000000e+07,-64.9552
1.605333333e+07,-64.7114
1.642666667e+07,-67.2299
1.680000000e+07,-65.6174
1.717333333e+07,-66.0199
1.754666667e+07,-66.7068
1.792000000e+07,-61.3692
1.829333333e+07,-63.548
1.866666667e+07,-66.8198
1.904000000e+07,-63.7885
1.941333333e+07,-63.0771
1.978666667e+07,-70.4826
2.016000000e+07,-68.9487
2.053333333e+07,-66.0323
2.090666667e+07,-65.4324
2.128000000e+07,-70.9785
2.165333333e+07,-63.3567
2.202666667e+07,-62.0159
2.240000000e+07,-64.7094
2.277333333e+07,-64.5276
2.314666667e+07,-66.9105
2.352000000e+07,-63.8506
2.389333333e+07,-67.84
2.426666667e+07,-71.882
2.464000000e+07,-56.7558
2.501333333e+07,-51.8657
2.538666667e+07,-61.6968
2.576000000e+07,-66.0595
2.613333333e+07,-63.2487
2.650666667e+07,-67.894
2.688000000e+07,-72.3098
2.725333333e+07,-57.6473
2.762666667e+07,-62.9805
2.800000000e+07,-66.0975
2.837333333e+07,-64.589
2.874666667e+07,-65.7749
2.912000000e+07,-64.3259
2.949333333e+07,-66.0752
2.986666667e+07,-54.513
3.024000000e+07,-54.725
3.061333333e+07,-69.0521
3.098666667e+07,-68.9175
3.136000000e+07,-65.5184
3.173333333e+07,-67.2149
3.210666667e+07,-73.0688
3.248000000e+07,-59.3905
3.285333333e+07,-58.5658
3.322666667e+07,-66.4849
3.360000000e+07,-69.4152
3.397333333e+07,-72.9721
3.434666667e+07,-70.5115
3.472000000e+07,-71.2607
3.509333333e+07,-61.4268
3.546666667e+07,-59.0458
3.584000000e+07,-49.2062
3.621333333e+07,-49.8377
3.658666667e+07,-66.5729
3.696000000e+07,-62.7648
3.733333333e+07,-63.3229
3.770666667e+07,-63.3234
3.808000000e+07,-63.2088
3.845333333e+07,-74.0849
3.882666667e+07,-66.6783
3.920000000e+07,-64.4237
3.957333333e+07,-68.9993
3.994666667e+07,-66.6208
4.032000000e+07,-66.7012
4.069333333e+07,-59.79
4.106666667e+07,-64.304
4.144000000e+07,-62.6215
4.181333333e+07,-56.2233
4.218666667e+07,-57.3668
4.256000000e+07,-63.7873
4.293333333e+07,-63.2743
4.330666667e+07,-66.0354
4.368000000e+07,-61.4625
4.405333333e+07,-61.9257
4.442666667e+07,-66.898
4.480000000e+07,-66.9531
4.517333333e+07,-61.4166
4.554666667e+07,-62.1307
4.592000000e+07,-63.9523
4.629333333e+07,-61.4663
4.666666667e+07,-64.3137
4.704000000e+07,-59.0224
4.741333333e+07,-60.2532
4.778666667e+07,-41.8901
4.816000000e+07,-41.138
4.853333333e+07,-52.9774
4.890666667e+07,-55.9658
4.928000000e+07,-52.7418
4.965333333e+07,-51.9784
5.002666667e+07,-65.4637
5.040000000e+07,-63.3139
5.077333333e+07,-62.2436
5.114666667e+07,-59.549
5.152000000e+07,-54.1378
5.189333333e+07,-58.8659
5.226666667e+07,-54.4268
5.264000000e+07,-53.1358
5.301333333e+07,-54.5263
5.338666667e+07,-55.4496
5.376000000e+07,-56.8532
5.413333333e+07,-62.8586
5.450666667e+07,-54.2659
5.488000000e+07,-54.8574
5.525333333e+07,-54.0069
5.562666667e+07,-55.6859
5.600000000e+07,-58.1811
5.637333333e+07,-55.843
5.674666667e+07,-57.7915
5.712000000e+07,-50.9772
5.749333333e+07,-51.1682
5.786666667e+07,-66.0628
5.824000000e+07,-55.2722
5.861333333e+07,-52.5498
5.898666667e+07,-53.0831
5.936000000e+07,-56.8018
5.973333333e+07,-36.0072
6.010666667e+07,-32.4274
6.048000000e+07,-45.5971
6.085333333e+07,-54.6623
6.122666667e+07,-53.1517
6.160000000e+07,-50.986
6.197333333e+07,-65.4314
6.234666667e+07,-58.5061
6.272000000e+07,-58.8693
6.309333333e+07,-61.5189
6.346666667e+07,-54.2806
6.384000000e+07,-55.4921
6.421333333e+07,-52.9413
6.458666667e+07,-51.8706
6.496000000e+07,-52.9461
6.533333333e+07,-61.6963
6.570666667e+07,-60.6172
6.608000000e+07,-53.1491
6.645333333e+07,-58.9226
6.682666667e+07,-56.261
6.720000000e+07,-53.4167
6.757333333e+07,-53.724
6.794666667e+07,-53.4583
6.832000000e+07,-53.5804
6.869333333e+07,-59.4751
6.906666667e+07,-62.2283
6.944000000e+07,-66.1626
6.981333333e+07,-63.0687
7.018666667e+07,-61.6179
7.056000000e+07,-59.3103
7.093333333e+07,-53.6454
7.130666667e+07,-54.798
7.168000000e+07,-47.4475
7.205333333e+07,-44.1899
7.242666667e+07,-51.4171
7.280000000e+07,-59.358
7.317333333e+07,-56.8746
7.354666667e+07,-52.8657
7.392000000e+07,-58.8166
7.429333333e+07,-63.4087
7.466666667e+07,-62.7324
7.504000000e+07,-63.7667
7.541333333e+07,-57.1658
7.578666667e+07,-58.9487
7.616000000e+07,-58.5566
7.653333333e+07,-56.4546
7.690666667e+07,-59.3968
7.728000000e+07,-68.5858
7.765333333e+07,-58.0446
7.802666667e+07,-53.311
7.840000000e+07,-57.7343
7.877333333e+07,-60.6411
7.914666667e+07,-52.2224
7.952000000e+07,-53.7874
7.989333333e+07,-60.7222
8.026666667e+07,-62.2526
8.064000000e+07,-62.5299
8.101333333e+07,-61.558
8.138666667e+07,-59.7165
8.176000000e+07,-52.6829
8.213333333e+07,-53.4989
8.250666667e+07,-59.9864
8.288000000e+07,-59.7577
8.325333333e+07,-59.3616
8.362666667e+07,-52.1431
8.400000000e+07,-50.3312
8.437333333e+07,-53.8427
8.474666667e+07,-53.118
8.512000000e+07,-57.3145
8.549333333e+07,-56.0385
8.586666667e+07,-62.8219
8.624000000e+07,-59.3282
8.661333333e+07,-62.6733
8.698666667e+07,-62.3196
8.736000000e+07,-53.4185
8.773333333e+07,-60.8819
8.810666667e+07,-60.2557
8.848000000e+07,-65.7503
8.885333333e+07,-68.3192
8.922666667e+07,-65.5563
8.960000000e+07,-63.0446
8.997333333e+07,-52.789
9.034666667e+07,-64.1102
9.072000000e+07,-63.7046
9.109333333e+07,-69.079
9.146666667e+07,-68.4899
9.184000000e+07,-64.4889
9.221333333e+07,-63.7099
9.258666667e+07,-53.2919
9.296000000e+07,-57.1991
9.333333333e+07,-64.8047
9.370666667e+07,-63.3638
9.408000000e+07,-67.7514
9.445333333e+07,-58.8754
9.482666667e+07,-59.0227
9.520000000e+07,-51.5802
9.557333333e+07,-51.5963
9.594666667e+07,-47.7207
9.632000000e+07,-49.4118
9.669333333e+07,-60.7506
9.706666667e+07,-59.6611
9.744000000e+07,-56.8606
9.781333333e+07,-56.2197
9.818666667e+07,-53.7785
9.856000000e+07,-58.0196
9.893333333e+07,-61.611
9.930666667e+07,-69.5235
9.968000000e+07,-65.8095
1.000533333e+08,-58.4848
1.004266667e+08,-59.0595
1.008000000e+08,-52.3788
1.011733333e+08,-55.3463
1.015466667e+08,-57.0333
1.019200000e+08,-59.9561
1.022933333e+08,-65.0907
1.026666667e+08,-64.0234
1.030400000e+08,-66.8305
1.034133333e+08,-56.3896
1.037866667e+08,-56.9501
1.041600000e+08,-58.3956
1.045333333e+08,-64.3412
1.049066667e+08,-66.5661
1.052800000e+08,-63.7605
1.056533333e+08,-62.0279
1.060266667e+08,-56.1245
1.064000000e+08,-50.6626
1.067733333e+08,-51.9186
1.071466667e+08,-59.9884
1.075200000e+08,-60.886
1.078933333e+08,-53.1775
1.082666667e+08,-55.2155
1.086400000e+08,-56.6084
1.090133333e+08,-55.5813
1.093866667e+08,-56.1268
1.097600000e+08,-60.9663
1.101333333e+08,-60.4507
1.105066667e+08,-67.396
1.108800000e+08,-65.655
1.112533333e+08,-63.1422
1.116266667e+08,-54.9131
1.120000000e+08,-50.9806
1.123733333e+08,-62.1691
1.127466667e+08,-59.2427
1.131200000e+08,-65.233
1.134933333e+08,-67.788
1.138666667e+08,-57.486
1.142400000e+08,-56.3918
1.146133333e+08,-54.8342
1.149866667e+08,-63.2053
1.153600000e+08,-62.2893
1.157333333e+08,-65.4927
1.161066667e+08,-74.0685
1.164800000e+08,-70.5383
1.168533333e+08,-61.908
1.172266667e+08,-49.9794
1.176000000e+08,-54.0654
1.179733333e+08,-64.2747
1.183466667e+08,-64.4853
1.187200000e+08,-65.9836
1.190933333e+08,-60.1481
1.194666667e+08,-58.5334
1.198400000e+08,-34.943
1.202133333e+08,-35.6112
1.205866667e+08,-62.3229
1.209600000e+08,-60.2687
1.213333333e+08,-64.4364
1.217066667e+08,-64.191
1.220800000e+08,-63.4954
1.224533333e+08,-51.6684
1.228266667e+08,-49.7834
1.232000000e+08,-58.1714
1.235733333e+08,-66.6741
1.239466667e+08,-64.1248
1.243200000e+08,-62.7668
1.246933333e+08,-60.2124
1.250666667e+08,-57.6795
1.254400000e+08,-53.5574
1.258133333e+08,-53.559
1.261866667e+08,-54.3844
1.265600000e+08,-65.0419
1.269333333e+08,-65.5705
1.273066667e+08,-60.7904
1.276800000e+08,-61.2761
1.280533333e+08,-49.8547
1.284266667e+08,-55.2816
1.288000000e+08,-60.1418
1.291733333e+08,-60.7549
1.295466667e+08,-63.2706
1.299200000e+08,-58.7188
1.302933333e+08,-59.5209
1.306666667e+08,-53.1176
1.310400000e+08,-54.8142
1.314133333e+08,-57.5747
1.317866667e+08,-53.6547
1.321600000e+08,-54.2385
1.325333333e+08,-58.7161
1.329066667e+08,-59.8759
1.332800000e+08,-50.8918
1.336533333e+08,-50.8885
1.340266667e+08,-53.0033
1.344000000e+08,-59.5027
1.347733333e+08,-60.2698
1.351466667e+08,-62.0868
1.355200000e+08,-58.5923
1.358933333e+08,-57.5855
1.362666667e+08,-55.3929
1.366400000e+08,-54.2245
1.370133333e+08,-63.2793
1.373866667e+08,-63.3001
1.377600000e+08,-61.5492
1.381333333e+08,-63.399
1.385066667e+08,-64.5966
1.388800000e+08,-56.6945
1.392533333e+08,-50.8713
1.396266667e+08,-59.4551
1.400000000e+08,-58.0629
1.403733333e+08,-61.1957
1.407466667e+08,-62.1169
1.411200000e+08,-62.3948
1.414933333e+08,-57.6604
1.418666667e+08,-51.6685
1.422400000e+08,-54.9703
1.426133333e+08,-58.5835
1.429866667e+08,-57.8356
1.433600000e+08,-58.5527
1.437333333e+08,-52.5534
1.441066667e+08,-50.9835
1.444800000e+08,-48.2193
1.448533333e+08,-50.235
1.452266667e+08,-55.8534
1.456000000e+08,-55.842
1.459733333e+08,-63.6345
1.463466667e+08,-63.6507
1.467200000e+08,-60.6713
1.470933333e+08,-52.0041
1.474666667e+08,-51.0481
1.478400000e+08,-60.2209
1.482133333e+08,-58.4744
1.485866667e+08,-62.8972
1.489600000e+08,-59.9305
1.493333333e+08,-57.8849
1.497066667e+08,-53.7575
1.500800000e+08,-50.3618
1.504533333e+08,-58.9665
1.508266667e+08,-58.9783
1.512000000e+08,-66.2802
1.515733333e+08,-66.3618
1.519466667e+08,-60.3548
1.523200000e+08,-58.8607
1.526933333e+08,-52.5075
1.530666667e+08,-66.3637
1.534400000e+08,-65.0033
1.538133333e+08,-64.4647
1.541866667e+08,-62.1105
1.545600000e+08,-56.86
1.549333333e+08,-58.7952
1.553066667e+08,-48.2329
1.556800000e+08,-48.9613
1.560533333e+08,-47.0904
1.564266667e+08,-58.0032
1.568000000e+08,-64.3067
1.571733333e+08,-62.8174
1.575466667e+08,-62.6475
1.579200000e+08,-52.8384
1.582933333e+08,-53.5532
1.586666667e+08,-56.5225
1.590400000e+08,-64.8074
1.594133333e+08,-59.0808
1.597866667e+08,-58.4997
1.601600000e+08,-54.772
1.605333333e+08,-51.7441
1.609066667e+08,-49.9474
1.612800000e+08,-52.9128
1.616533333e+08,-57.7677
1.620266667e+08,-69.2786
1.624000000e+08,-68.0477
1.627733333e+08,-61.7764
1.631466667e+08,-58.3243
1.635200000e+08,-54.5156
1.638933333e+08,-55.4031
1.642666667e+08,-58.7861
1.646400000e+08,-61.0542
1.650133333e+08,-61.9135
1.653866667e+08,-59.2924
1.657600000e+08,-59.0352
1.661333333e+08,-52.5244
1.665066667e+08,-50.9161
1.668800000e+08,-56.2405
1.672533333e+08,-56.9212
1.676266667e+08,-53.5429
1.680000000e+08,-46.7289
1.683733333e+08,-49.5717
1.687466667e+08,-56.0825
1.691200000e+08,-54.2495
1.694933333e+08,-58.2773
1.698666667e+08,-59.4383
1.702400000e+08,-59.6736
1.706133333e+08,-61.6689
1.709866667e+08,-58.4665
1.713600000e+08,-57.3396
1.717333333e+08,-48.7944
1.721066667e+08,-48.8073
1.724800000e+08,-59.1327
1.728533333e+08,-57.6049
1.732266667e+08,-63.7274
1.736000000e+08,-65.1991
1.739733333e+08,-59.7241
1.743466667e+08,-55.8461
1.747200000e+08,-52.0951
1.750933333e+08,-59.933
1.754666667e+08,-58.7373
1.758400000e+08,-63.1184
1.762133333e+08,-58.8025
1.765866667e+08,-57.531
1.769600000e+08,-56.2796
1.773333333e+08,-47.5696
1.777066667e+08,-58.5685
1.780800000e+08,-57.9521
1.784533333e+08,-60.3412
1.788266667e+08,-63.615
1.792000000e+08,-57.7094
1.795733333e+08,-50.3254
1.799466667e+08,-38.2566
1.803200000e+08,-43.2991
1.806933333e+08,-60.288
1.810666667e+08,-62.0591
1.814400000e+08,-62.2629
1.818133333e+08,-62.5956
1.821866667e+08,-60.3282
1.825600000e+08,-47.2996
1.829333333e+08,-48.8235
1.833066667e+08,-56.0878
1.836800000e+08,-60.9298
1.840533333e+08,-64.545
1.844266667e+08,-57.0517
1.848000000e+08,-55.8817
1.851733333e+08,-54.1126
1.855466667e+08,-53.7543
1.859200000e+08,-57.2211
1.862933333e+08,-60.9602
1.866666667e+08,-74.8162
1.870400000e+08,-64.365
1.874133333e+08,-56.6625
1.877866667e+08,-52.3668
1.881600000e+08,-49.1984
1.885333333e+08,-53.6346
1.889066667e+08,-58.7814
1.892800000e+08,-60.1535
1.896533333e+08,-60.9803
1.900266667e+08,-57.5248
1.904000000e+08,-57.1389
1.907733333e+08,-51.4638
1.911466667e+08,-60.9333
1.915200000e+08,-60.2216
1.918933333e+08,-46.4254
1.922666667e+08,-46.2257
1.926400000e+08,-57.7425
1.930133333e+08,-57.2423
1.933866667e+08,-51.3046
1.937600000e+08,-50.43
1.941333333e+08,-52.0651
1.945066667e+08,-62.1468
1.948800000e+08,-60.8674
1.952533333e+08,-59.7028
1.956266667e+08,-58.4122
1.960000000e+08,-56.1061
1.963733333e+08,-56.034
1.967466667e+08,-55.6598
1.971200000e+08,-63.3368
1.974933333e+08,-65.0631
1.978666667e+08,-62.5592
1.982400000e+08,-59.8656
1.986133333e+08,-60.6872
1.989866667e+08,-49.3611
1.993600000e+08,-47.5476
1.997333333e+08,-59.0679
2.001066667e+08,-58.3058
2.004800000e+08,-58.0679
2.008533333e+08,-58.4155
2.012266667e+08,-59.4025
2.016000000e+08,-58.2709
2.019733333e+08,-51.9368
2.023466667e+08,-60.8101
2.027200000e+08,-59.1588
2.030933333e+08,-60.9874
2.034666667e+08,-61.4149
2.038400000e+08,-48.2612
2.042133333e+08,-48.5434
2.045866667e+08,-46.7527
2.049600000e+08,-54.7275
2.053333333e+08,-55.9053
2.057066667e+08,-56.0711
2.060800000e+08,-61.1154
2.064533333e+08,-59.3762
2.068266667e+08,-58.3086
2.072000000e+08,-53.7301
2.075733333e+08,-56.958
2.079466667e+08,-57.0057
2.083200000e+08,-57.1545
2.086933333e+08,-64.3867
2.090666667e+08,-56.7312
2.094400000e+08,-56.5747
2.098133333e+08,-46.9085
2.101866667e+08,-46.7839
2.105600000e+08,-58.3932
2.109333333e+08,-60.585
2.113066667e+08,-62.2674
2.116800000e+08,-61.5727
2.120533333e+08,-60.7127
2.124266667e+08,-54.3842
2.128000000e+08,-52.8862
2.131733333e+08,-59.9893
2.135466667e+08,-60.6829
2.139200000e+08,-74.7534
2.142933333e+08,-61.7088
2.146666667e+08,-56.5617
2.150400000e+08,-51.7664
2.154133333e+08,-45.894
2.157866667e+08,-52.8056
2.161600000e+08,-50.2673
2.165333333e+08,-54.8708
2.169066667e+08,-61.9453
2.172800000e+08,-57.0636
2.176533333e+08,-59.8901
2.180266667e+08,-53.6207
2.184000000e+08,-54.8149
2.187733333e+08,-53.9683
2.191466667e+08,-66.6103
2.195200000e+08,-61.8165
2.198933333e+08,-56.7244
2.202666667e+08,-54.8399
2.206400000e+08,-47.366
2.210133333e+08,-48.9164
2.213866667e+08,-51.8722
2.217600000e+08,-61.2598
2.221333333e+08,-63.814
2.225066667e+08,-58.526
2.228800000e+08,-57.0317
2.232533333e+08,-54.633
2.236266667e+08,-54.7786
2.240000000e+08,-54.941
2.243733333e+08,-60.1613
2.247466667e+08,-62.311
2.251200000e+08,-61.6629
2.254933333e+08,-54.5112
2.258666667e+08,-55.6876
2.262400000e+08,-52.3196
2.266133333e+08,-49.6154
2.269866667e+08,-58.5198
2.273600000e+08,-57.2775
2.277333333e+08,-50.4445
2.281066667e+08,-48.1397
2.284800000e+08,-56.8015
2.288533333e+08,-57.8655
2.292266667e+08,-54.5123
2.296000000e+08,-56.8242
2.299733333e+08,-61.5006
2.303466667e+08,-64.9274
2.307200000e+08,-58.9948
2.310933333e+08,-57.4496
2.314666667e+08,-55.0393
2.318400000e+08,-47.0933
2.322133333e+08,-50.5881
2.325866667e+08,-55.9538
2.329600000e+08,-56.8175
2.333333333e+08,-63.9234
2.337066667e+08,-63.2874
2.340800000e+08,-60.0085
2.344533333e+08,-53.2551
2.348266667e+08,-53.1257
2.352000000e+08,-62.1257
2.355733333e+08,-64.8213
2.359466667e+08,-62.842
2.363200000e+08,-58.9906
2.366933333e+08,-62.0607
2.370666667e+08,-47.1173
2.374400000e+08,-45.6156
2.378133333e+08,-59.5374
2.381866667e+08,-59.1171
2.385600000e+08,-63.493
2.389333333e+08,-59.9122
2.393066667e+08,-59.3062
2.396800000e+08,-51.1597
2.400533333e+08,-48.1711
2.404266667e+08,-53.2012
2.408000000e+08,-61.2934
2.411733333e+08,-65.0608
2.415466667e+08,-69.155
2.419200000e+08,-58.0238
2.422933333e+08,-59.0162
2.426666667e+08,-46.5922
2.430400000e+08,-52.792
2.434133333e+08,-59.6206
2.437866667e+08,-63.2726
2.441600000e+08,-67.0536
2.445333333e+08,-56.5278
2.449066667e+08,-57.0466
2.452800000e+08,-52.4882
2.456533333e+08,-54.3094
2.460266667e+08,-55.7239
2.464000000e+08,-64.4349
2.467733333e+08,-69.7425
2.471466667e+08,-60.7711
2.475200000e+08,-57.1415
2.478933333e+08,-48.1145
2.482666667e+08,-48.1696
2.486400000e+08,-54.8768
2.490133333e+08,-60.2345
2.493866667e+08,-63.7478
2.497600000e+08,-59.4398
2.501333333e+08,-57.6441
2.505066667e+08,-56.4658
2.508800000e+08,-55.1669
2.512533333e+08,-58.5026
2.516266667e+08,-53.3151
2.520000000e+08,-46.5913
2.523733333e+08,-56.688
2.527466667e+08,-57.6732
2.531200000e+08,-59.6964
2.534933333e+08,-52.7055
2.538666667e+08,-50.9364
2.542400000e+08,-55.5362
2.546133333e+08,-60.0797
2.549866667e+08,-58.7448
2.553600000e+08,-58.6331
2.557333333e+08,-58.922
2.561066667e+08,-55.2666
2.564800000e+08,-56.7208
2.568533333e+08,-59.1078
2.572266667e+08,-60.1118
2.576000000e+08,-59.165
2.579733333e+08,-62.1657
2.583466667e+08,-57.97
2.587200000e+08,-55.7898
2.590933333e+08,-48.5349
2.594666667e+08,-49.4584
2.598400000e+08,-59.6642
2.602133333e+08,-60.1155
2.605866667e+08,-58.6737
2.609600000e+08,-59.2546
2.613333333e+08,-64.4149
2.617066667e+08,-54.8803
2.620800000e+08,-53.4486
2.624533333e+08,-58.1044
2.628266667e+08,-57.8007
2.632000000e+08,-58.8256
2.635733333e+08,-62.1984
2.639466667e+08,-55.262
2.643200000e+08,-50.5839
2.646933333e+08,-47.609
2.650666667e+08,-59.2085
2.654400000e+08,-60.7413
2.658133333e+08,-62.2354
2.661866667e+08,-61.764
2.665600000e+08,-59.815
2.669333333e+08,-60.887
2.673066667e+08,-53.2989
2.676800000e+08,-63.6232
2.680533333e+08,-61.7332
2.684266667e+08,-63.6076
2.688000000e+08,-64.6819
2.691733333e+08,-58.1811
2.695466667e+08,-58.3503
2.699200000e+08,-47.3136
2.702933333e+08,-51.2559
2.706666667e+08,-58.1926
2.710400000e+08,-65.801
2.714133333e+08,-68.0583
2.717866667e+08,-57.615
2.721600000e+08,-56.7989
2.725333333e+08,-53.7606
2.729066667e+08,-54.6369
2.732800000e+08,-58.464
2.736533333e+08,-59.3199
2.740266667e+08,-68.5653
2.744000000e+08,-61.0288
2.747733333e+08,-59.3815
2.751466667e+08,-49.309
2.755200000e+08,-47.8262
2.758933333e+08,-43.8693
2.762666667e+08,-47.4301
2.766400000e+08,-68.9029
2.770133333e+08,-65.0232
2.773866667e+08,-62.0109
2.777600000e+08,-62.9139
2.781333333e+08,-56.6552
2.785066667e+08,-58.985
2.788800000e+08,-59.0173
2.792533333e+08,-65.817
2.796266667e+08,-77.3055
2.800000000e+08,-56.124

