Model,MDO3104
Firmware Version,1.30

Waveform Type,RF_FD
Point Format,Y
Horizontal Units,Hz
Horizontal Scale,2.8e+07
,
Sample Interval,373333
Record Length,751
Gating,0.133155792277% to 100.0%
Probe Attenuation,1
Vertical Units,dBm
Vertical Offset,0
Vertical Scale,10
Vertical Position,0
Center Frequency,1.4e+08
Span,2.8e+08
Reference Level,-15
Label,
FREQUENCY,FD NORM
0.000000000e+00,-69.4144
3.733333333e+05,-78.6862
7.466666667e+05,-74.7575
1.120000000e+06,-73.5252
1.493333333e+06,-69.9361
1.866666667e+06,-69.8694
2.240000000e+06,-73.5514
2.613333333e+06,-67.3403
2.986666667e+06,-71.1188
3.360000000e+06,-62.7136
3.733333333e+06,-62.2942
4.106666667e+06,-67.4328
4.480000000e+06,-72.0973
4.853333333e+06,-69.4045
5.226666667e+06,-63.4042
5.600000000e+06,-64.2113
5.973333333e+06,-71.3283
6.346666667e+06,-73.3097
6.720000000e+06,-75.4736
7.093333333e+06,-78.5594
7.466666667e+06,-77.3851
7.840000000e+06,-67.6145
8.213333333e+06,-67.106
8.586666667e+06,-73.5815
8.960000000e+06,-70.5674
9.333333333e+06,-68.806
9.706666667e+06,-69.5083
1.008000000e+07,-73.7804
1.045333333e+07,-70.1949
1.082666667e+07,-72.9075
1.120000000e+07,-68.9056
1.157333333e+07,-67.7769
1.194666667e+07,-66.6265
1.232000000e+07,-68.181
1.269333333e+07,-69.5078
1.306666667e+07,-67.6114
1.344000000e+07,-62.581
1.381333333e+07,-67.3443
1.418666667e+07,-63.8482
1.456000000e+07,-64.406
1.493333333e+07,-68.3542
1.530666667e+07,-64.3791
1.568000000e+07,-72.4608
1.605333333e+07,-65.0356
1.642666667e+07,-65.0926
1.680000000e+07,-71.0233
1.717333333e+07,-75.4802
1.754666667e+07,-66.5629
1.792000000e+07,-61.1155
1.829333333e+07,-63.6559
1.866666667e+07,-67.7835
1.904000000e+07,-70.8018
1.941333333e+07,-72.4244
1.978666667e+07,-66.6461
2.016000000e+07,-65.6668
2.053333333e+07,-69.3651
2.090666667e+07,-64.9743
2.128000000e+07,-64.0464
2.165333333e+07,-69.096
2.202666667e+07,-67.3283
2.240000000e+07,-69.8471
2.277333333e+07,-69.9824
2.314666667e+07,-66.2806
2.352000000e+07,-70.8834
2.389333333e+07,-70.1494
2.426666667e+07,-65.259
2.464000000e+07,-58.8838
2.501333333e+07,-54.0293
2.538666667e+07,-68.3453
2.576000000e+07,-73.4363
2.613333333e+07,-63.795
2.650666667e+07,-64.6264
2.688000000e+07,-69.2486
2.725333333e+07,-60.1612
2.762666667e+07,-65.0618
2.800000000e+07,-70.8963
2.837333333e+07,-73.5702
2.874666667e+07,-72.9304
2.912000000e+07,-66.5753
2.949333333e+07,-68.1118
2.986666667e+07,-65.2241
3.024000000e+07,-67.9187
3.061333333e+07,-66.973
3.098666667e+07,-69.7536
3.136000000e+07,-70.1379
3.173333333e+07,-68.0838
3.210666667e+07,-66.9678
3.248000000e+07,-59.5485
3.285333333e+07,-57.5672
3.322666667e+07,-69.1225
3.360000000e+07,-64.3104
3.397333333e+07,-66.6881
3.434666667e+07,-67.0775
3.472000000e+07,-81.5797
3.509333333e+07,-64.2283
3.546666667e+07,-58.6729
3.584000000e+07,-57.4037
3.621333333e+07,-56.7702
3.658666667e+07,-63.7125
3.696000000e+07,-65.2921
3.733333333e+07,-66.4933
3.770666667e+07,-61.4643
3.808000000e+07,-61.5928
3.845333333e+07,-59.5668
3.882666667e+07,-67.24
3.920000000e+07,-64.6928
3.957333333e+07,-64.6493
3.994666667e+07,-61.9931
4.032000000e+07,-61.0001
4.069333333e+07,-59.3156
4.106666667e+07,-62.3339
4.144000000e+07,-64.723
4.181333333e+07,-62.5919
4.218666667e+07,-67.109
4.256000000e+07,-62.2865
4.293333333e+07,-63.0371
4.330666667e+07,-60.6655
4.368000000e+07,-58.7429
4.405333333e+07,-66.4943
4.442666667e+07,-64.6425
4.480000000e+07,-63.7404
4.517333333e+07,-66.3149
4.554666667e+07,-60.5508
4.592000000e+07,-57.8507
4.629333333e+07,-59.2288
4.666666667e+07,-59.0528
4.704000000e+07,-57.1799
4.741333333e+07,-55.4626
4.778666667e+07,-48.8867
4.816000000e+07,-48.3293
4.853333333e+07,-54.2443
4.890666667e+07,-57.1516
4.928000000e+07,-58.9155
4.965333333e+07,-56.3496
5.002666667e+07,-53.155
5.040000000e+07,-52.6958
5.077333333e+07,-52.976
5.114666667e+07,-54.4166
5.152000000e+07,-52.9199
5.189333333e+07,-48.9955
5.226666667e+07,-54.3359
5.264000000e+07,-63.006
5.301333333e+07,-55.7604
5.338666667e+07,-56.7506
5.376000000e+07,-58.2506
5.413333333e+07,-63.2936
5.450666667e+07,-56.7744
5.488000000e+07,-54.842
5.525333333e+07,-60.3226
5.562666667e+07,-60.176
5.600000000e+07,-56.4198
5.637333333e+07,-52.8711
5.674666667e+07,-53.2544
5.712000000e+07,-49.3626
5.749333333e+07,-48.5727
5.786666667e+07,-53.4334
5.824000000e+07,-52.9868
5.861333333e+07,-66.9018
5.898666667e+07,-57.346
5.936000000e+07,-51.7206
5.973333333e+07,-37.5246
6.010666667e+07,-34.5983
6.048000000e+07,-49.0951
6.085333333e+07,-53.963
6.122666667e+07,-62.4192
6.160000000e+07,-55.1477
6.197333333e+07,-52.9519
6.234666667e+07,-53.7792
6.272000000e+07,-57.2814
6.309333333e+07,-58.2554
6.346666667e+07,-51.6455
6.384000000e+07,-54.8158
6.421333333e+07,-59.1986
6.458666667e+07,-67.0019
6.496000000e+07,-56.0209
6.533333333e+07,-59.2045
6.570666667e+07,-59.9486
6.608000000e+07,-58.4388
6.645333333e+07,-56.7212
6.682666667e+07,-57.0299
6.720000000e+07,-61.5693
6.757333333e+07,-68.8449
6.794666667e+07,-51.5314
6.832000000e+07,-53.6345
6.869333333e+07,-55.159
6.906666667e+07,-59.2079
6.944000000e+07,-55.3958
6.981333333e+07,-53.8044
7.018666667e+07,-56.5882
7.056000000e+07,-59.8248
7.093333333e+07,-56.2858
7.130666667e+07,-55.8508
7.168000000e+07,-54.5151
7.205333333e+07,-49.8044
7.242666667e+07,-56.3854
7.280000000e+07,-60.8215
7.317333333e+07,-63.2725
7.354666667e+07,-55.0138
7.392000000e+07,-55.8819
7.429333333e+07,-70.7019
7.466666667e+07,-59.2154
7.504000000e+07,-59.2578
7.541333333e+07,-63.1398
7.578666667e+07,-62.2834
7.616000000e+07,-56.4629
7.653333333e+07,-54.7799
7.690666667e+07,-56.8856
7.728000000e+07,-59.0837
7.765333333e+07,-58.9071
7.802666667e+07,-60.3509
7.840000000e+07,-65.4619
7.877333333e+07,-54.1749
7.914666667e+07,-53.9297
7.952000000e+07,-60.8943
7.989333333e+07,-60.1412
8.026666667e+07,-62.1394
8.064000000e+07,-62.6256
8.101333333e+07,-59.3988
8.138666667e+07,-61.6945
8.176000000e+07,-53.6044
8.213333333e+07,-53.7852
8.250666667e+07,-60.7794
8.288000000e+07,-58.1296
8.325333333e+07,-56.2691
8.362666667e+07,-57.5699
8.400000000e+07,-49.4928
8.437333333e+07,-57.8448
8.474666667e+07,-56.2334
8.512000000e+07,-69.781
8.549333333e+07,-60.4475
8.586666667e+07,-59.6039
8.624000000e+07,-60.9506
8.661333333e+07,-68.9437
8.698666667e+07,-55.7115
8.736000000e+07,-51.4193
8.773333333e+07,-61.4943
8.810666667e+07,-61.2292
8.848000000e+07,-65.3358
8.885333333e+07,-60.6203
8.922666667e+07,-58.9502
8.960000000e+07,-57.5222
8.997333333e+07,-46.4799
9.034666667e+07,-54.4507
9.072000000e+07,-64.483
9.109333333e+07,-68.9023
9.146666667e+07,-62.8564
9.184000000e+07,-61.2166
9.221333333e+07,-63.9875
9.258666667e+07,-51.7875
9.296000000e+07,-53.233
9.333333333e+07,-63.0987
9.370666667e+07,-63.517
9.408000000e+07,-63.882
9.445333333e+07,-61.0397
9.482666667e+07,-59.4367
9.520000000e+07,-52.0237
9.557333333e+07,-51.1268
9.594666667e+07,-48.816
9.632000000e+07,-56.1412
9.669333333e+07,-62.95
9.706666667e+07,-63.6432
9.744000000e+07,-56.9026
9.781333333e+07,-55.658
9.818666667e+07,-58.0599
9.856000000e+07,-58.547
9.893333333e+07,-71.4602
9.930666667e+07,-70.8981
9.968000000e+07,-66.7259
1.000533333e+08,-60.096
1.004266667e+08,-58.0394
1.008000000e+08,-54.5599
1.011733333e+08,-59.9872
1.015466667e+08,-60.3218
1.019200000e+08,-62.063
1.022933333e+08,-63.2845
1.026666667e+08,-64.6987
1.030400000e+08,-59.5557
1.034133333e+08,-56.8995
1.037866667e+08,-58.7796
1.041600000e+08,-64.7877
1.045333333e+08,-71.8513
1.049066667e+08,-68.457
1.052800000e+08,-71.7065
1.056533333e+08,-57.7289
1.060266667e+08,-56.9584
1.064000000e+08,-55.6395
1.067733333e+08,-60.4067
1.071466667e+08,-61.2857
1.075200000e+08,-65.1639
1.078933333e+08,-58.0281
1.082666667e+08,-57.485
1.086400000e+08,-60.1201
1.090133333e+08,-54.4273
1.093866667e+08,-54.6928
1.097600000e+08,-61.5401
1.101333333e+08,-58.2388
1.105066667e+08,-59.8388
1.108800000e+08,-61.6092
1.112533333e+08,-59.2915
1.116266667e+08,-53.2499
1.120000000e+08,-51.4272
1.123733333e+08,-62.4182
1.127466667e+08,-64.7906
1.131200000e+08,-64.3099
1.134933333e+08,-64.3135
1.138666667e+08,-61.102
1.142400000e+08,-60.1358
1.146133333e+08,-52.658
1.149866667e+08,-59.544
1.153600000e+08,-61.3282
1.157333333e+08,-61.6309
1.161066667e+08,-65.7482
1.164800000e+08,-64.2468
1.168533333e+08,-60.9935
1.172266667e+08,-49.0286
1.176000000e+08,-53.4435
1.179733333e+08,-62.3051
1.183466667e+08,-63.4793
1.187200000e+08,-66.5029
1.190933333e+08,-62.4356
1.194666667e+08,-59.5182
1.198400000e+08,-35.0077
1.202133333e+08,-35.8478
1.205866667e+08,-58.6073
1.209600000e+08,-58.9188
1.213333333e+08,-64.786
1.217066667e+08,-64.7878
1.220800000e+08,-60.9522
1.224533333e+08,-49.8414
1.228266667e+08,-48.4797
1.232000000e+08,-61.6968
1.235733333e+08,-61.0031
1.239466667e+08,-62.1694
1.243200000e+08,-63.1072
1.246933333e+08,-63.9363
1.250666667e+08,-60.9919
1.254400000e+08,-51.8624
1.258133333e+08,-60.958
1.261866667e+08,-60.8647
1.265600000e+08,-64.5591
1.269333333e+08,-62.2526
1.273066667e+08,-65.4493
1.276800000e+08,-59.5026
1.280533333e+08,-50.3822
1.284266667e+08,-52.7279
1.288000000e+08,-60.521
1.291733333e+08,-61.4925
1.295466667e+08,-61.8537
1.299200000e+08,-66.0974
1.302933333e+08,-59.3184
1.306666667e+08,-52.4839
1.310400000e+08,-53.0522
1.314133333e+08,-57.5855
1.317866667e+08,-52.2399
1.321600000e+08,-52.2175
1.325333333e+08,-68.7003
1.329066667e+08,-59.2015
1.332800000e+08,-53.7437
1.336533333e+08,-51.6702
1.340266667e+08,-53.0815
1.344000000e+08,-56.5612
1.347733333e+08,-64.1308
1.351466667e+08,-61.4507
1.355200000e+08,-63.2582
1.358933333e+08,-61.3549
1.362666667e+08,-55.3887
1.366400000e+08,-55.7945
1.370133333e+08,-62.5537
1.373866667e+08,-63.6428
1.377600000e+08,-64.3498
1.381333333e+08,-65.5674
1.385066667e+08,-57.0687
1.388800000e+08,-53.043
1.392533333e+08,-49.2857
1.396266667e+08,-59.9743
1.400000000e+08,-63.9801
1.403733333e+08,-62.1478
1.407466667e+08,-62.3969
1.411200000e+08,-59.6354
1.414933333e+08,-58.5543
1.418666667e+08,-54.0611
1.422400000e+08,-59.6211
1.426133333e+08,-63.193
1.429866667e+08,-69.3121
1.433600000e+08,-58.8799
1.437333333e+08,-52.3243
1.441066667e+08,-53.4022
1.444800000e+08,-49.1774
1.448533333e+08,-52.6667
1.452266667e+08,-60.0418
1.456000000e+08,-59.5134
1.459733333e+08,-62.7546
1.463466667e+08,-55.4596
1.467200000e+08,-54.7716
1.470933333e+08,-51.8689
1.474666667e+08,-51.9389
1.478400000e+08,-62.9472
1.482133333e+08,-69.4334
1.485866667e+08,-69.1083
1.489600000e+08,-69.8264
1.493333333e+08,-65.3766
1.497066667e+08,-54.03
1.500800000e+08,-49.6362
1.504533333e+08,-61.0161
1.508266667e+08,-63.5711
1.512000000e+08,-67.5618
1.515733333e+08,-68.4353
1.519466667e+08,-63.5081
1.523200000e+08,-58.6555
1.526933333e+08,-51.144
1.530666667e+08,-61.774
1.534400000e+08,-63.3505
1.538133333e+08,-63.3204
1.541866667e+08,-61.2176
1.545600000e+08,-70.7609
1.549333333e+08,-64.5206
1.553066667e+08,-51.14
1.556800000e+08,-52.7103
1.560533333e+08,-46.9332
1.564266667e+08,-58.5656
1.568000000e+08,-59.2326
1.571733333e+08,-58.6943
1.575466667e+08,-66.4483
1.579200000e+08,-50.8058
1.582933333e+08,-51.902
1.586666667e+08,-56.3138
1.590400000e+08,-57.0275
1.594133333e+08,-59.6973
1.597866667e+08,-57.7869
1.601600000e+08,-61.4009
1.605333333e+08,-52.681
1.609066667e+08,-50.1353
1.612800000e+08,-51.7005
1.616533333e+08,-59.5243
1.620266667e+08,-61.0475
1.624000000e+08,-61.4788
1.627733333e+08,-63.0176
1.631466667e+08,-60.8496
1.635200000e+08,-53.8008
1.638933333e+08,-54.3847
1.642666667e+08,-59.507
1.646400000e+08,-59.7072
1.650133333e+08,-60.3949
1.653866667e+08,-60.3036
1.657600000e+08,-62.9556
1.661333333e+08,-51.2467
1.665066667e+08,-49.1426
1.668800000e+08,-60.6575
1.672533333e+08,-61.1577
1.676266667e+08,-58.6109
1.680000000e+08,-55.9589
1.683733333e+08,-58.5603
1.687466667e+08,-59.8418
1.691200000e+08,-52.8179
1.694933333e+08,-57.2371
1.698666667e+08,-59.3332
1.702400000e+08,-59.8123
1.706133333e+08,-65.5422
1.709866667e+08,-61.6863
1.713600000e+08,-58.3497
1.717333333e+08,-47.5476
1.721066667e+08,-48.6
1.724800000e+08,-59.3386
1.728533333e+08,-67.6147
1.732266667e+08,-62.5076
1.736000000e+08,-70.8458
1.739733333e+08,-60.7639
1.743466667e+08,-54.6599
1.747200000e+08,-52.0933
1.750933333e+08,-62.6594
1.754666667e+08,-61.7398
1.758400000e+08,-63.6904
1.762133333e+08,-65.5853
1.765866667e+08,-56.8554
1.769600000e+08,-53.6212
1.773333333e+08,-47.6962
1.777066667e+08,-61.1784
1.780800000e+08,-65.3109
1.784533333e+08,-64.0882
1.788266667e+08,-65.7826
1.792000000e+08,-64.4645
1.795733333e+08,-56.4349
1.799466667e+08,-47.9555
1.803200000e+08,-53.5887
1.806933333e+08,-68.1556
1.810666667e+08,-65.6285
1.814400000e+08,-60.9955
1.818133333e+08,-59.4288
1.821866667e+08,-63.0121
1.825600000e+08,-47.8243
1.829333333e+08,-49.4303
1.833066667e+08,-60.6705
1.836800000e+08,-61.75
1.840533333e+08,-61.1878
1.844266667e+08,-60.3998
1.848000000e+08,-60.3451
1.851733333e+08,-53.8982
1.855466667e+08,-53.0366
1.859200000e+08,-62.5671
1.862933333e+08,-62.8333
1.866666667e+08,-67.8239
1.870400000e+08,-65.2157
1.874133333e+08,-63.2667
1.877866667e+08,-52.7215
1.881600000e+08,-47.5942
1.885333333e+08,-54.1757
1.889066667e+08,-60.2942
1.892800000e+08,-60.8664
1.896533333e+08,-60.3085
1.900266667e+08,-61.8549
1.904000000e+08,-59.6483
1.907733333e+08,-54.4576
1.911466667e+08,-55.2949
1.915200000e+08,-53.0902
1.918933333e+08,-53.8295
1.922666667e+08,-60.03
1.926400000e+08,-60.1359
1.930133333e+08,-55.799
1.933866667e+08,-48.8384
1.937600000e+08,-48.6546
1.941333333e+08,-54.5585
1.945066667e+08,-61.8242
1.948800000e+08,-59.2677
1.952533333e+08,-63.863
1.956266667e+08,-56.8195
1.960000000e+08,-55.8559
1.963733333e+08,-52.9787
1.967466667e+08,-55.034
1.971200000e+08,-56.3298
1.974933333e+08,-65.0171
1.978666667e+08,-70.0179
1.982400000e+08,-63.4066
1.986133333e+08,-56.1888
1.989866667e+08,-48.7507
1.993600000e+08,-48.4849
1.997333333e+08,-56.7125
2.001066667e+08,-59.7262
2.004800000e+08,-59.9003
2.008533333e+08,-67.3404
2.012266667e+08,-58.8593
2.016000000e+08,-56.2448
2.019733333e+08,-52.6018
2.023466667e+08,-60.4195
2.027200000e+08,-60.3769
2.030933333e+08,-62.5771
2.034666667e+08,-62.3718
2.038400000e+08,-46.5715
2.042133333e+08,-47.7251
2.045866667e+08,-47.0433
2.049600000e+08,-56.392
2.053333333e+08,-60.0692
2.057066667e+08,-59.2494
2.060800000e+08,-59.1035
2.064533333e+08,-65.4979
2.068266667e+08,-68.9502
2.072000000e+08,-53.7089
2.075733333e+08,-56.5408
2.079466667e+08,-60.579
2.083200000e+08,-62.9931
2.086933333e+08,-66.4557
2.090666667e+08,-60.9767
2.094400000e+08,-63.3419
2.098133333e+08,-46.7077
2.101866667e+08,-46.9388
2.105600000e+08,-63.7146
2.109333333e+08,-62.8744
2.113066667e+08,-67.3377
2.116800000e+08,-59.8789
2.120533333e+08,-60.0719
2.124266667e+08,-57.3563
2.128000000e+08,-54.4659
2.131733333e+08,-63.162
2.135466667e+08,-59.5265
2.139200000e+08,-59.8904
2.142933333e+08,-56.2205
2.146666667e+08,-56.5764
2.150400000e+08,-54.2032
2.154133333e+08,-47.2539
2.157866667e+08,-53.5239
2.161600000e+08,-57.1089
2.165333333e+08,-61.6598
2.169066667e+08,-61.6348
2.172800000e+08,-60.1574
2.176533333e+08,-57.6294
2.180266667e+08,-53.722
2.184000000e+08,-54.2249
2.187733333e+08,-62.2864
2.191466667e+08,-61.908
2.195200000e+08,-64.898
2.198933333e+08,-61.5294
2.202666667e+08,-55.668
2.206400000e+08,-49.4073
2.210133333e+08,-49.4503
2.213866667e+08,-54.3183
2.217600000e+08,-57.3074
2.221333333e+08,-62.8711
2.225066667e+08,-57.9151
2.228800000e+08,-59.1024
2.232533333e+08,-57.4838
2.236266667e+08,-54.8228
2.240000000e+08,-55.2579
2.243733333e+08,-63.9466
2.247466667e+08,-64.5835
2.251200000e+08,-63.5547
2.254933333e+08,-64.5222
2.258666667e+08,-54.5088
2.262400000e+08,-48.6982
2.266133333e+08,-48.0038
2.269866667e+08,-56.9549
2.273600000e+08,-58.1655
2.277333333e+08,-53.6215
2.281066667e+08,-50.2493
2.284800000e+08,-56.6536
2.288533333e+08,-56.8104
2.292266667e+08,-52.9967
2.296000000e+08,-57.9121
2.299733333e+08,-57.4191
2.303466667e+08,-59.8036
2.307200000e+08,-58.641
2.310933333e+08,-57.0492
2.314666667e+08,-52.4003
2.318400000e+08,-46.4583
2.322133333e+08,-53.5369
2.325866667e+08,-58.7846
2.329600000e+08,-61.8579
2.333333333e+08,-64.9614
2.337066667e+08,-59.5248
2.340800000e+08,-58.4335
2.344533333e+08,-51.4581
2.348266667e+08,-53.2069
2.352000000e+08,-60.3913
2.355733333e+08,-61.3238
2.359466667e+08,-63.5166
2.363200000e+08,-67.166
2.366933333e+08,-60.9988
2.370666667e+08,-47.0558
2.374400000e+08,-46.0529
2.378133333e+08,-57.8484
2.381866667e+08,-59.4916
2.385600000e+08,-67.7546
2.389333333e+08,-63.9232
2.393066667e+08,-52.7706
2.396800000e+08,-47.5978
2.400533333e+08,-49.2699
2.404266667e+08,-59.2717
2.408000000e+08,-57.4397
2.411733333e+08,-70.5142
2.415466667e+08,-64.6442
2.419200000e+08,-60.0817
2.422933333e+08,-54.6962
2.426666667e+08,-45.6088
2.430400000e+08,-51.3044
2.434133333e+08,-61.7504
2.437866667e+08,-68.5448
2.441600000e+08,-63.7724
2.445333333e+08,-61.6503
2.449066667e+08,-61.0804
2.452800000e+08,-53.0116
2.456533333e+08,-55.6165
2.460266667e+08,-61.1269
2.464000000e+08,-63.1426
2.467733333e+08,-64.9624
2.471466667e+08,-61.0859
2.475200000e+08,-59.5716
2.478933333e+08,-48.3302
2.482666667e+08,-47.5866
2.486400000e+08,-54.8901
2.490133333e+08,-61.8334
2.493866667e+08,-63.3165
2.497600000e+08,-60.7869
2.501333333e+08,-59.7443
2.505066667e+08,-57.715
2.508800000e+08,-55.5805
2.512533333e+08,-60.7634
2.516266667e+08,-54.657
2.520000000e+08,-48.8
2.523733333e+08,-57.1536
2.527466667e+08,-61.1268
2.531200000e+08,-57.7255
2.534933333e+08,-50.7006
2.538666667e+08,-51.3215
2.542400000e+08,-55.1041
2.546133333e+08,-55.4083
2.549866667e+08,-59.6092
2.553600000e+08,-58.2265
2.557333333e+08,-60.7765
2.561066667e+08,-58.186
2.564800000e+08,-55.9073
2.568533333e+08,-65.7249
2.572266667e+08,-61.9755
2.576000000e+08,-63.3798
2.579733333e+08,-58.0415
2.583466667e+08,-57.5331
2.587200000e+08,-56.1065
2.590933333e+08,-48.2937
2.594666667e+08,-50.7796
2.598400000e+08,-62.3576
2.602133333e+08,-63.2229
2.605866667e+08,-59.2988
2.609600000e+08,-63.515
2.613333333e+08,-60.3008
2.617066667e+08,-55.0773
2.620800000e+08,-54.9781
2.624533333e+08,-63.2774
2.628266667e+08,-63.6684
2.632000000e+08,-65.5605
2.635733333e+08,-64.0072
2.639466667e+08,-53.4706
2.643200000e+08,-49.7105
2.646933333e+08,-47.45
2.650666667e+08,-63.6433
2.654400000e+08,-62.9501
2.658133333e+08,-65.4513
2.661866667e+08,-63.0111
2.665600000e+08,-55.8492
2.669333333e+08,-60.3988
2.673066667e+08,-54.0393
2.676800000e+08,-63.5295
2.680533333e+08,-63.3537
2.684266667e+08,-66.5099
2.688000000e+08,-62.4699
2.691733333e+08,-59.106
2.695466667e+08,-60.0263
2.699200000e+08,-47.794
2.702933333e+08,-51.1033
2.706666667e+08,-60.52
2.710400000e+08,-62.882
2.714133333e+08,-64.1073
2.717866667e+08,-62.0995
2.721600000e+08,-61.2646
2.725333333e+08,-52.6398
2.729066667e+08,-53.7005
2.732800000e+08,-62.0396
2.736533333e+08,-62.6811
2.740266667e+08,-67.371
2.744000000e+08,-61.8674
2.747733333e+08,-63.0605
2.751466667e+08,-51.3868
2.755200000e+08,-49.6454
2.758933333e+08,-44.6084
2.762666667e+08,-46.4357
2.766400000e+08,-64.3238
2.770133333e+08,-61.9276
2.773866667e+08,-61.7011
2.777600000e+08,-59.7271
2.781333333e+08,-54.488
2.785066667e+08,-61.9744
2.788800000e+08,-60.9284
2.792533333e+08,-60.668
2.796266667e+08,-59.9116
2.800000000e+08,-59.9676

