Model,MDO3104
Firmware Version,1.30

Waveform Type,RF_FD
Point Format,Y
Horizontal Units,Hz
Horizontal Scale,2.8e+07
,
Sample Interval,373333
Record Length,751
Gating,0.133155792277% to 100.0%
Probe Attenuation,1
Vertical Units,dBm
Vertical Offset,0
Vertical Scale,10
Vertical Position,0
Center Frequency,1.4e+08
Span,2.8e+08
Reference Level,-15
Label,
FREQUENCY,FD NORM
0.000000000e+00,-64.2687
3.733333333e+05,-75.9624
7.466666667e+05,-76.4898
1.120000000e+06,-78.9719
1.493333333e+06,-68.4201
1.866666667e+06,-66.3899
2.240000000e+06,-78.3216
2.613333333e+06,-70.3529
2.986666667e+06,-76.4041
3.360000000e+06,-59.7534
3.733333333e+06,-61.1992
4.106666667e+06,-62.7984
4.480000000e+06,-60.9155
4.853333333e+06,-64.6799
5.226666667e+06,-62.0269
5.600000000e+06,-68.0613
5.973333333e+06,-65.5515
6.346666667e+06,-72.3932
6.720000000e+06,-75.384
7.093333333e+06,-77.2156
7.466666667e+06,-72.3073
7.840000000e+06,-70.9422
8.213333333e+06,-71.0014
8.586666667e+06,-69.0679
8.960000000e+06,-70.8425
9.333333333e+06,-70.0456
9.706666667e+06,-69.4966
1.008000000e+07,-67.2474
1.045333333e+07,-66.6872
1.082666667e+07,-69.6499
1.120000000e+07,-66.5316
1.157333333e+07,-68.4061
1.194666667e+07,-70.4875
1.232000000e+07,-67.4592
1.269333333e+07,-68.8691
1.306666667e+07,-71.4053
1.344000000e+07,-66.5948
1.381333333e+07,-68.1094
1.418666667e+07,-70.0043
1.456000000e+07,-72.4142
1.493333333e+07,-71.1833
1.530666667e+07,-67.3112
1.568000000e+07,-70.0171
1.605333333e+07,-66.0607
1.642666667e+07,-64.1068
1.680000000e+07,-67.2564
1.717333333e+07,-70.2464
1.754666667e+07,-70.3147
1.792000000e+07,-73.6435
1.829333333e+07,-72.4361
1.866666667e+07,-66.98
1.904000000e+07,-67.3914
1.941333333e+07,-66.959
1.978666667e+07,-84.1015
2.016000000e+07,-69.2507
2.053333333e+07,-70.7335
2.090666667e+07,-74.2825
2.128000000e+07,-64.8407
2.165333333e+07,-62.2263
2.202666667e+07,-61.5103
2.240000000e+07,-64.5872
2.277333333e+07,-64.4027
2.314666667e+07,-74.9634
2.352000000e+07,-72.25
2.389333333e+07,-67.3504
2.426666667e+07,-65.7639
2.464000000e+07,-61.5361
2.501333333e+07,-53.3405
2.538666667e+07,-63.691
2.576000000e+07,-63.7576
2.613333333e+07,-63.0923
2.650666667e+07,-72.46
2.688000000e+07,-64.8143
2.725333333e+07,-61.7024
2.762666667e+07,-66.36
2.800000000e+07,-72.0065
2.837333333e+07,-72.9975
2.874666667e+07,-72.6873
2.912000000e+07,-70.7599
2.949333333e+07,-77.5456
2.986666667e+07,-60.9943
3.024000000e+07,-62.0864
3.061333333e+07,-76.6881
3.098666667e+07,-70.1958
3.136000000e+07,-68.7006
3.173333333e+07,-71.2237
3.210666667e+07,-71.6245
3.248000000e+07,-60.9165
3.285333333e+07,-60.2799
3.322666667e+07,-74.6792
3.360000000e+07,-74.6333
3.397333333e+07,-73.0771
3.434666667e+07,-73.9047
3.472000000e+07,-71.7346
3.509333333e+07,-60.4197
3.546666667e+07,-57.8081
3.584000000e+07,-59.942
3.621333333e+07,-61.5911
3.658666667e+07,-70.9053
3.696000000e+07,-73.1926
3.733333333e+07,-80.2945
3.770666667e+07,-69.8961
3.808000000e+07,-60.2797
3.845333333e+07,-67.6735
3.882666667e+07,-71.7792
3.920000000e+07,-69.741
3.957333333e+07,-73.7394
3.994666667e+07,-73.1976
4.032000000e+07,-69.0964
4.069333333e+07,-57.5528
4.106666667e+07,-60.2237
4.144000000e+07,-70.6336
4.181333333e+07,-72.7766
4.218666667e+07,-75.7892
4.256000000e+07,-72.4697
4.293333333e+07,-70.8245
4.330666667e+07,-62.7337
4.368000000e+07,-60.632
4.405333333e+07,-61.522
4.442666667e+07,-70.4859
4.480000000e+07,-72.1756
4.517333333e+07,-69.8324
4.554666667e+07,-71.0833
4.592000000e+07,-61.688
4.629333333e+07,-58.8017
4.666666667e+07,-58.7112
4.704000000e+07,-65.1869
4.741333333e+07,-66.8329
4.778666667e+07,-64.1158
4.816000000e+07,-61.7235
4.853333333e+07,-68.7913
4.890666667e+07,-62.5359
4.928000000e+07,-58.8373
4.965333333e+07,-69.0371
5.002666667e+07,-71.2027
5.040000000e+07,-71.4556
5.077333333e+07,-74.0098
5.114666667e+07,-68.5078
5.152000000e+07,-62.5744
5.189333333e+07,-55.7803
5.226666667e+07,-61.7918
5.264000000e+07,-67.6479
5.301333333e+07,-70.9344
5.338666667e+07,-72.7417
5.376000000e+07,-72.8451
5.413333333e+07,-67.8466
5.450666667e+07,-56.5872
5.488000000e+07,-58.9381
5.525333333e+07,-70.1701
5.562666667e+07,-72.7946
5.600000000e+07,-75.4133
5.637333333e+07,-72.7993
5.674666667e+07,-73.1231
5.712000000e+07,-52.839
5.749333333e+07,-53.0728
5.786666667e+07,-75.8282
5.824000000e+07,-80.2421
5.861333333e+07,-79.2209
5.898666667e+07,-77.5433
5.936000000e+07,-78.3463
5.973333333e+07,-36.9076
6.010666667e+07,-34.6062
6.048000000e+07,-54.2522
6.085333333e+07,-70.7389
6.122666667e+07,-74.6469
6.160000000e+07,-72.4134
6.197333333e+07,-73.1267
6.234666667e+07,-59.3145
6.272000000e+07,-52.2713
6.309333333e+07,-61.0034
6.346666667e+07,-71.3723
6.384000000e+07,-75.7123
6.421333333e+07,-73.1282
6.458666667e+07,-66.4185
6.496000000e+07,-65.3884
6.533333333e+07,-55.4609
6.570666667e+07,-61.0225
6.608000000e+07,-69.7284
6.645333333e+07,-68.8542
6.682666667e+07,-67.7043
6.720000000e+07,-66.5984
6.757333333e+07,-65.5679
6.794666667e+07,-55.8446
6.832000000e+07,-57.0478
6.869333333e+07,-64.759
6.906666667e+07,-77.4977
6.944000000e+07,-68.2825
6.981333333e+07,-65.5462
7.018666667e+07,-68.9707
7.056000000e+07,-56.293
7.093333333e+07,-55.2213
7.130666667e+07,-60.4375
7.168000000e+07,-64.7817
7.205333333e+07,-64.9921
7.242666667e+07,-67.3561
7.280000000e+07,-65.7505
7.317333333e+07,-64.2871
7.354666667e+07,-59.007
7.392000000e+07,-59.6438
7.429333333e+07,-64.0361
7.466666667e+07,-65.5299
7.504000000e+07,-69.1451
7.541333333e+07,-69.5683
7.578666667e+07,-61.2604
7.616000000e+07,-57.7708
7.653333333e+07,-57.0773
7.690666667e+07,-66.4533
7.728000000e+07,-72.1053
7.765333333e+07,-69.2542
7.802666667e+07,-69.9416
7.840000000e+07,-64.9325
7.877333333e+07,-59.5372
7.914666667e+07,-56.3874
7.952000000e+07,-58.7125
7.989333333e+07,-71.0087
8.026666667e+07,-72.175
8.064000000e+07,-72.0171
8.101333333e+07,-72.5366
8.138666667e+07,-62.1522
8.176000000e+07,-55.5865
8.213333333e+07,-57.0624
8.250666667e+07,-72.3156
8.288000000e+07,-73.4508
8.325333333e+07,-78.509
8.362666667e+07,-58.9508
8.400000000e+07,-52.3643
8.437333333e+07,-55.2532
8.474666667e+07,-53.6389
8.512000000e+07,-70.8981
8.549333333e+07,-70.891
8.586666667e+07,-72.6344
8.624000000e+07,-71.1142
8.661333333e+07,-69.2512
8.698666667e+07,-57.438
8.736000000e+07,-53.6363
8.773333333e+07,-74.3522
8.810666667e+07,-76.1196
8.848000000e+07,-73.1554
8.885333333e+07,-71.7913
8.922666667e+07,-70.4916
8.960000000e+07,-61.7661
8.997333333e+07,-49.4884
9.034666667e+07,-56.2583
9.072000000e+07,-75.0095
9.109333333e+07,-76.4327
9.146666667e+07,-69.7171
9.184000000e+07,-70.5807
9.221333333e+07,-68.7566
9.258666667e+07,-53.6033
9.296000000e+07,-56.5233
9.333333333e+07,-69.2149
9.370666667e+07,-71.7254
9.408000000e+07,-75.7006
9.445333333e+07,-67.3982
9.482666667e+07,-66.3064
9.520000000e+07,-52.0597
9.557333333e+07,-51.877
9.594666667e+07,-53.6144
9.632000000e+07,-55.7874
9.669333333e+07,-72.1993
9.706666667e+07,-68.5584
9.744000000e+07,-66.8165
9.781333333e+07,-57.7786
9.818666667e+07,-54.1928
9.856000000e+07,-59.4887
9.893333333e+07,-71.6371
9.930666667e+07,-66.4275
9.968000000e+07,-69.1866
1.000533333e+08,-67.1051
1.004266667e+08,-61.1531
1.008000000e+08,-53.2268
1.011733333e+08,-55.3355
1.015466667e+08,-58.8011
1.019200000e+08,-64.5837
1.022933333e+08,-64.5522
1.026666667e+08,-66.8825
1.030400000e+08,-62.4178
1.034133333e+08,-56.9986
1.037866667e+08,-57.531
1.041600000e+08,-63.4245
1.045333333e+08,-76.3452
1.049066667e+08,-72.9309
1.052800000e+08,-64.8328
1.056533333e+08,-65.0181
1.060266667e+08,-57.7384
1.064000000e+08,-54.3927
1.067733333e+08,-56.4833
1.071466667e+08,-63.8816
1.075200000e+08,-62.6926
1.078933333e+08,-52.5749
1.082666667e+08,-56.5806
1.086400000e+08,-59.2295
1.090133333e+08,-55.1961
1.093866667e+08,-54.5317
1.097600000e+08,-63.5571
1.101333333e+08,-66.9657
1.105066667e+08,-68.1319
1.108800000e+08,-70.1735
1.112533333e+08,-61.589
1.116266667e+08,-54.251
1.120000000e+08,-51.4792
1.123733333e+08,-61.2073
1.127466667e+08,-70.29
1.131200000e+08,-63.8363
1.134933333e+08,-64.3097
1.138666667e+08,-69.6313
1.142400000e+08,-62.6336
1.146133333e+08,-53.9361
1.149866667e+08,-62.438
1.153600000e+08,-72.3926
1.157333333e+08,-74.7948
1.161066667e+08,-67.4688
1.164800000e+08,-67.825
1.168533333e+08,-65.6398
1.172266667e+08,-49.8251
1.176000000e+08,-53.2404
1.179733333e+08,-71.6281
1.183466667e+08,-71.3721
1.187200000e+08,-74.9594
1.190933333e+08,-64.6265
1.194666667e+08,-62.1191
1.198400000e+08,-36.2533
1.202133333e+08,-36.8758
1.205866667e+08,-66.9148
1.209600000e+08,-72.5197
1.213333333e+08,-69.2246
1.217066667e+08,-67.9192
1.220800000e+08,-71.8743
1.224533333e+08,-51.4491
1.228266667e+08,-49.8958
1.232000000e+08,-65.1841
1.235733333e+08,-64.0895
1.239466667e+08,-66.5144
1.243200000e+08,-76.2447
1.246933333e+08,-66.6201
1.250666667e+08,-58.1101
1.254400000e+08,-53.1657
1.258133333e+08,-63.6712
1.261866667e+08,-66.1868
1.265600000e+08,-67.8395
1.269333333e+08,-66.445
1.273066667e+08,-68.213
1.276800000e+08,-58.5194
1.280533333e+08,-49.6861
1.284266667e+08,-54.3385
1.288000000e+08,-61.7223
1.291733333e+08,-67.3907
1.295466667e+08,-64.1895
1.299200000e+08,-62.6891
1.302933333e+08,-63.3083
1.306666667e+08,-52.4111
1.310400000e+08,-54.1614
1.314133333e+08,-60.4441
1.317866667e+08,-51.8324
1.321600000e+08,-50.6632
1.325333333e+08,-62.4967
1.329066667e+08,-66.1393
1.332800000e+08,-52.5972
1.336533333e+08,-52.2952
1.340266667e+08,-53.7518
1.344000000e+08,-63.8765
1.347733333e+08,-63.7819
1.351466667e+08,-63.256
1.355200000e+08,-61.6369
1.358933333e+08,-57.9078
1.362666667e+08,-55.8036
1.366400000e+08,-54.609
1.370133333e+08,-63.574
1.373866667e+08,-63.1119
1.377600000e+08,-67.7155
1.381333333e+08,-62.5451
1.385066667e+08,-61.267
1.388800000e+08,-55.8272
1.392533333e+08,-50.9304
1.396266667e+08,-61.8076
1.400000000e+08,-66.001
1.403733333e+08,-68.485
1.407466667e+08,-67.0265
1.411200000e+08,-68.1717
1.414933333e+08,-57.4101
1.418666667e+08,-54
1.422400000e+08,-60.7027
1.426133333e+08,-67.0866
1.429866667e+08,-68.1714
1.433600000e+08,-65.354
1.437333333e+08,-65.5154
1.441066667e+08,-53.5152
1.444800000e+08,-48.6605
1.448533333e+08,-50.354
1.452266667e+08,-63.4283
1.456000000e+08,-74.7642
1.459733333e+08,-69.3743
1.463466667e+08,-66.9823
1.467200000e+08,-72.9704
1.470933333e+08,-51.8335
1.474666667e+08,-51.4853
1.478400000e+08,-73.3445
1.482133333e+08,-71.6021
1.485866667e+08,-71.3613
1.489600000e+08,-74.2699
1.493333333e+08,-69.7486
1.497066667e+08,-50.7904
1.500800000e+08,-47.9904
1.504533333e+08,-62.5716
1.508266667e+08,-69.7054
1.512000000e+08,-74.4147
1.515733333e+08,-62.0778
1.519466667e+08,-66.083
1.523200000e+08,-57.5273
1.526933333e+08,-51.7644
1.530666667e+08,-61.2315
1.534400000e+08,-66.8091
1.538133333e+08,-72.7761
1.541866667e+08,-75.1008
1.545600000e+08,-66.4678
1.549333333e+08,-61.4763
1.553066667e+08,-48.9547
1.556800000e+08,-52.8196
1.560533333e+08,-49.8516
1.564266667e+08,-63.6165
1.568000000e+08,-62.9343
1.571733333e+08,-66.5983
1.575466667e+08,-60.2015
1.579200000e+08,-52.0517
1.582933333e+08,-52.4558
1.586666667e+08,-64.4776
1.590400000e+08,-67.1396
1.594133333e+08,-66.2283
1.597866667e+08,-66.9899
1.601600000e+08,-66.4337
1.605333333e+08,-51.6341
1.609066667e+08,-49.814
1.612800000e+08,-54.1673
1.616533333e+08,-62.3415
1.620266667e+08,-65.6114
1.624000000e+08,-64.2014
1.627733333e+08,-64.9112
1.631466667e+08,-59.2986
1.635200000e+08,-53.8987
1.638933333e+08,-56.3534
1.642666667e+08,-65.2173
1.646400000e+08,-68.7798
1.650133333e+08,-67.2993
1.653866667e+08,-63.7477
1.657600000e+08,-57.756
1.661333333e+08,-53.2212
1.665066667e+08,-50.3678
1.668800000e+08,-56.4972
1.672533333e+08,-63.6503
1.676266667e+08,-62.709
1.680000000e+08,-62.1505
1.683733333e+08,-61.2877
1.687466667e+08,-56.0917
1.691200000e+08,-53.7466
1.694933333e+08,-58.6229
1.698666667e+08,-66.5151
1.702400000e+08,-69.4411
1.706133333e+08,-71.0401
1.709866667e+08,-64.3638
1.713600000e+08,-56.5923
1.717333333e+08,-48.3082
1.721066667e+08,-48.446
1.724800000e+08,-66.3309
1.728533333e+08,-72.1235
1.732266667e+08,-73.7399
1.736000000e+08,-72.9224
1.739733333e+08,-71.6574
1.743466667e+08,-54.1152
1.747200000e+08,-52.1098
1.750933333e+08,-65.5277
1.754666667e+08,-69.5117
1.758400000e+08,-71.227
1.762133333e+08,-72.8772
1.765866667e+08,-71.9496
1.769600000e+08,-54.6651
1.773333333e+08,-47.7506
1.777066667e+08,-57.3809
1.780800000e+08,-68.835
1.784533333e+08,-66.7516
1.788266667e+08,-71.2642
1.792000000e+08,-72.9871
1.795733333e+08,-52.8691
1.799466667e+08,-39.8548
1.803200000e+08,-45.1832
1.806933333e+08,-69.5314
1.810666667e+08,-67.9147
1.814400000e+08,-67.9476
1.818133333e+08,-68.2939
1.821866667e+08,-70.7826
1.825600000e+08,-47.179
1.829333333e+08,-48.3752
1.833066667e+08,-64.8936
1.836800000e+08,-71.2421
1.840533333e+08,-69.5886
1.844266667e+08,-65.2378
1.848000000e+08,-65.255
1.851733333e+08,-53.5733
1.855466667e+08,-52.5733
1.859200000e+08,-69.1323
1.862933333e+08,-68.9545
1.866666667e+08,-69
1.870400000e+08,-67.979
1.874133333e+08,-63.247
1.877866667e+08,-53.486
1.881600000e+08,-48.5071
1.885333333e+08,-55.6472
1.889066667e+08,-60.8448
1.892800000e+08,-65.1861
1.896533333e+08,-65.0093
1.900266667e+08,-61.9338
1.904000000e+08,-64.8358
1.907733333e+08,-55.9083
1.911466667e+08,-57.9094
1.915200000e+08,-62.8474
1.918933333e+08,-54.1469
1.922666667e+08,-52.7748
1.926400000e+08,-62.5398
1.930133333e+08,-63.2134
1.933866667e+08,-49.3089
1.937600000e+08,-49.5528
1.941333333e+08,-51.7411
1.945066667e+08,-60.8178
1.948800000e+08,-64.186
1.952533333e+08,-62.3431
1.956266667e+08,-63.5406
1.960000000e+08,-57.5208
1.963733333e+08,-54.0356
1.967466667e+08,-55.713
1.971200000e+08,-64.4183
1.974933333e+08,-65.1378
1.978666667e+08,-64.882
1.982400000e+08,-61.9474
1.986133333e+08,-54.6865
1.989866667e+08,-50.4381
1.993600000e+08,-49.0544
1.997333333e+08,-58.5851
2.001066667e+08,-64.0079
2.004800000e+08,-63.7631
2.008533333e+08,-68.8291
2.012266667e+08,-63.7124
2.016000000e+08,-56.8183
2.019733333e+08,-52.7022
2.023466667e+08,-63.3134
2.027200000e+08,-70.0383
2.030933333e+08,-68.6405
2.034666667e+08,-67.8696
2.038400000e+08,-49.8969
2.042133333e+08,-49.6954
2.045866667e+08,-47.8742
2.049600000e+08,-55.6773
2.053333333e+08,-66.1327
2.057066667e+08,-67.8535
2.060800000e+08,-64.9707
2.064533333e+08,-64.207
2.068266667e+08,-64.2729
2.072000000e+08,-54.5162
2.075733333e+08,-56.4828
2.079466667e+08,-66.4684
2.083200000e+08,-71.9996
2.086933333e+08,-79.3829
2.090666667e+08,-71.4882
2.094400000e+08,-68.1776
2.098133333e+08,-47.3238
2.101866667e+08,-46.8243
2.105600000e+08,-64.8152
2.109333333e+08,-73.8696
2.113066667e+08,-67.4283
2.116800000e+08,-67.784
2.120533333e+08,-72.2005
2.124266667e+08,-54.7313
2.128000000e+08,-52.5836
2.131733333e+08,-62.6809
2.135466667e+08,-64.5434
2.139200000e+08,-64.1763
2.142933333e+08,-67.3949
2.146666667e+08,-69.3804
2.150400000e+08,-52.6828
2.154133333e+08,-46.5578
2.157866667e+08,-53.6719
2.161600000e+08,-56.6715
2.165333333e+08,-65.4148
2.169066667e+08,-64.6541
2.172800000e+08,-65.4431
2.176533333e+08,-65.7712
2.180266667e+08,-53.6644
2.184000000e+08,-56.6749
2.187733333e+08,-61.8834
2.191466667e+08,-59.7471
2.195200000e+08,-59.9219
2.198933333e+08,-63.3548
2.202666667e+08,-56.7478
2.206400000e+08,-48.1206
2.210133333e+08,-49.1393
2.213866667e+08,-54.9791
2.217600000e+08,-61.4674
2.221333333e+08,-63.8473
2.225066667e+08,-64.9182
2.228800000e+08,-66.0364
2.232533333e+08,-58.0264
2.236266667e+08,-55.539
2.240000000e+08,-55.4445
2.243733333e+08,-63.98
2.247466667e+08,-63.7053
2.251200000e+08,-68.7068
2.254933333e+08,-61.651
2.258666667e+08,-56.4733
2.262400000e+08,-52.2048
2.266133333e+08,-49.9262
2.269866667e+08,-55.7901
2.273600000e+08,-59.7363
2.277333333e+08,-49.8699
2.281066667e+08,-48.2173
2.284800000e+08,-63.3318
2.288533333e+08,-57.3114
2.292266667e+08,-56.3376
2.296000000e+08,-62.7261
2.299733333e+08,-68.4129
2.303466667e+08,-65.7874
2.307200000e+08,-65.7512
2.310933333e+08,-61.526
2.314666667e+08,-54.4327
2.318400000e+08,-47.3023
2.322133333e+08,-50.7037
2.325866667e+08,-61.4301
2.329600000e+08,-65.643
2.333333333e+08,-63.4546
2.337066667e+08,-68.5981
2.340800000e+08,-61.2841
2.344533333e+08,-53.081
2.348266667e+08,-54.7039
2.352000000e+08,-72.1707
2.355733333e+08,-69.9837
2.359466667e+08,-69.6443
2.363200000e+08,-67.609
2.366933333e+08,-67.1175
2.370666667e+08,-48.0293
2.374400000e+08,-46.4414
2.378133333e+08,-67.062
2.381866667e+08,-72.3416
2.385600000e+08,-74.6084
2.389333333e+08,-73.7534
2.393066667e+08,-67.8923
2.396800000e+08,-52.6747
2.400533333e+08,-44.0489
2.404266667e+08,-48.4454
2.408000000e+08,-70.9927
2.411733333e+08,-69.5433
2.415466667e+08,-75.4272
2.419200000e+08,-68.0249
2.422933333e+08,-57.6202
2.426666667e+08,-47.0985
2.430400000e+08,-53.4803
2.434133333e+08,-68.4854
2.437866667e+08,-71.6926
2.441600000e+08,-68.1696
2.445333333e+08,-66.3331
2.449066667e+08,-65.3186
2.452800000e+08,-53.2561
2.456533333e+08,-55.1622
2.460266667e+08,-68.8752
2.464000000e+08,-71.1031
2.467733333e+08,-66.8561
2.471466667e+08,-65.4895
2.475200000e+08,-64.099
2.478933333e+08,-48.3823
2.482666667e+08,-48.1527
2.486400000e+08,-55.6534
2.490133333e+08,-64.0768
2.493866667e+08,-66.8038
2.497600000e+08,-66.5747
2.501333333e+08,-66.3233
2.505066667e+08,-58.5127
2.508800000e+08,-54.0869
2.512533333e+08,-57.648
2.516266667e+08,-56.7524
2.520000000e+08,-47.1083
2.523733333e+08,-52.9668
2.527466667e+08,-64.7213
2.531200000e+08,-55.3713
2.534933333e+08,-50.0538
2.538666667e+08,-51.2044
2.542400000e+08,-58.2916
2.546133333e+08,-60.9154
2.549866667e+08,-68.5486
2.553600000e+08,-68.364
2.557333333e+08,-67.3539
2.561066667e+08,-56.509
2.564800000e+08,-56.1282
2.568533333e+08,-62.4894
2.572266667e+08,-64.2146
2.576000000e+08,-63.544
2.579733333e+08,-63.2437
2.583466667e+08,-62.7156
2.587200000e+08,-55.2157
2.590933333e+08,-49.1603
2.594666667e+08,-50.7472
2.598400000e+08,-62.6242
2.602133333e+08,-65.3757
2.605866667e+08,-63.9119
2.609600000e+08,-64.4446
2.613333333e+08,-65.0537
2.617066667e+08,-55.6725
2.620800000e+08,-55.1416
2.624533333e+08,-67.5332
2.628266667e+08,-69.6018
2.632000000e+08,-69.2264
2.635733333e+08,-64.0017
2.639466667e+08,-51.783
2.643200000e+08,-50.3942
2.646933333e+08,-48.1774
2.650666667e+08,-60.5933
2.654400000e+08,-65.0278
2.658133333e+08,-63.6649
2.661866667e+08,-66.0609
2.665600000e+08,-71.6805
2.669333333e+08,-60.3277
2.673066667e+08,-53.577
2.676800000e+08,-61.4674
2.680533333e+08,-75.0937
2.684266667e+08,-73.1752
2.688000000e+08,-67.9301
2.691733333e+08,-67.7591
2.695466667e+08,-61.1246
2.699200000e+08,-45.8356
2.702933333e+08,-49.3207
2.706666667e+08,-72.2343
2.710400000e+08,-74.1428
2.714133333e+08,-77.0505
2.717866667e+08,-77.8801
2.721600000e+08,-75.1469
2.725333333e+08,-53.1833
2.729066667e+08,-53.9632
2.732800000e+08,-70.2748
2.736533333e+08,-70.9994
2.740266667e+08,-74.5375
2.744000000e+08,-71.9576
2.747733333e+08,-61.949
2.751466667e+08,-50.6738
2.755200000e+08,-48.7222
2.758933333e+08,-47.8376
2.762666667e+08,-50.1983
2.766400000e+08,-67.6879
2.770133333e+08,-66.853
2.773866667e+08,-69.8971
2.777600000e+08,-61.504
2.781333333e+08,-54.7613
2.785066667e+08,-60.608
2.788800000e+08,-69.5211
2.792533333e+08,-70.7624
2.796266667e+08,-73.089
2.800000000e+08,-65.247

