Model,MDO3104
Firmware Version,1.30

Waveform Type,RF_FD
Point Format,Y
Horizontal Units,Hz
Horizontal Scale,2.8e+07
,
Sample Interval,373333
Record Length,751
Gating,0.133155792277% to 100.0%
Probe Attenuation,1
Vertical Units,dBm
Vertical Offset,0
Vertical Scale,10
Vertical Position,0
Center Frequency,1.4e+08
Span,2.8e+08
Reference Level,-15
Label,
FREQUENCY,FD NORM
0.000000000e+00,-62.1359
3.733333333e+05,-71.2869
7.466666667e+05,-83.8504
1.120000000e+06,-81.4268
1.493333333e+06,-67.5823
1.866666667e+06,-65.5157
2.240000000e+06,-72.6255
2.613333333e+06,-64.9583
2.986666667e+06,-67.7736
3.360000000e+06,-61.0202
3.733333333e+06,-61.1363
4.106666667e+06,-63.3862
4.480000000e+06,-68.7541
4.853333333e+06,-70.7895
5.226666667e+06,-67.0075
5.600000000e+06,-67.7277
5.973333333e+06,-64.9531
6.346666667e+06,-66.4928
6.720000000e+06,-67.3039
7.093333333e+06,-63.9063
7.466666667e+06,-62.0183
7.840000000e+06,-59.0894
8.213333333e+06,-60.199
8.586666667e+06,-59.7511
8.960000000e+06,-59.2468
9.333333333e+06,-59.3738
9.706666667e+06,-57.5392
1.008000000e+07,-57.4072
1.045333333e+07,-57.128
1.082666667e+07,-57.064
1.120000000e+07,-60.4914
1.157333333e+07,-63.0265
1.194666667e+07,-60.5287
1.232000000e+07,-63.0686
1.269333333e+07,-61.261
1.306666667e+07,-67.1232
1.344000000e+07,-70.9962
1.381333333e+07,-69.189
1.418666667e+07,-63.41
1.456000000e+07,-65.9558
1.493333333e+07,-64.3849
1.530666667e+07,-66.1958
1.568000000e+07,-67.5063
1.605333333e+07,-63.7349
1.642666667e+07,-60.0494
1.680000000e+07,-62.6153
1.717333333e+07,-62.7994
1.754666667e+07,-66.5954
1.792000000e+07,-68.6275
1.829333333e+07,-66.8049
1.866666667e+07,-65.5592
1.904000000e+07,-69.5891
1.941333333e+07,-63.3636
1.978666667e+07,-62.0982
2.016000000e+07,-65.2841
2.053333333e+07,-65.7223
2.090666667e+07,-64.3083
2.128000000e+07,-73.0621
2.165333333e+07,-63.3812
2.202666667e+07,-62.0035
2.240000000e+07,-69.0725
2.277333333e+07,-67.6622
2.314666667e+07,-69.9258
2.352000000e+07,-71.4883
2.389333333e+07,-66.5959
2.426666667e+07,-66.987
2.464000000e+07,-63.0233
2.501333333e+07,-54.2123
2.538666667e+07,-58.5944
2.576000000e+07,-69.8109
2.613333333e+07,-61.1483
2.650666667e+07,-68.0567
2.688000000e+07,-64.3693
2.725333333e+07,-60.1218
2.762666667e+07,-61.322
2.800000000e+07,-62.5839
2.837333333e+07,-61.6431
2.874666667e+07,-60.9823
2.912000000e+07,-60.7582
2.949333333e+07,-64.1804
2.986666667e+07,-55.6499
3.024000000e+07,-58.5619
3.061333333e+07,-63.4047
3.098666667e+07,-64.7223
3.136000000e+07,-63.3737
3.173333333e+07,-71.0583
3.210666667e+07,-65.7884
3.248000000e+07,-57.4725
3.285333333e+07,-58.6312
3.322666667e+07,-57.0096
3.360000000e+07,-57.695
3.397333333e+07,-54.6042
3.434666667e+07,-55.2329
3.472000000e+07,-53.2132
3.509333333e+07,-53.5836
3.546666667e+07,-54.2572
3.584000000e+07,-54.3518
3.621333333e+07,-53.9448
3.658666667e+07,-61.5099
3.696000000e+07,-65.3036
3.733333333e+07,-63.4492
3.770666667e+07,-61.3845
3.808000000e+07,-55.4267
3.845333333e+07,-55.1747
3.882666667e+07,-60.4173
3.920000000e+07,-56.797
3.957333333e+07,-59.335
3.994666667e+07,-59.0748
4.032000000e+07,-57.7941
4.069333333e+07,-55.3061
4.106666667e+07,-56.0515
4.144000000e+07,-60.9151
4.181333333e+07,-55.9896
4.218666667e+07,-60.5881
4.256000000e+07,-59.7317
4.293333333e+07,-60.31
4.330666667e+07,-57.8862
4.368000000e+07,-57.9574
4.405333333e+07,-58.348
4.442666667e+07,-57.423
4.480000000e+07,-59.716
4.517333333e+07,-59.2497
4.554666667e+07,-57.0535
4.592000000e+07,-58.4371
4.629333333e+07,-57.4024
4.666666667e+07,-54.0343
4.704000000e+07,-52.6021
4.741333333e+07,-52.6325
4.778666667e+07,-41.2012
4.816000000e+07,-40.1488
4.853333333e+07,-52.9253
4.890666667e+07,-53.393
4.928000000e+07,-52.7705
4.965333333e+07,-61.236
5.002666667e+07,-55.9255
5.040000000e+07,-54.5991
5.077333333e+07,-60.3746
5.114666667e+07,-53.0054
5.152000000e+07,-57.5358
5.189333333e+07,-55.7959
5.226666667e+07,-53.4514
5.264000000e+07,-53.9433
5.301333333e+07,-49.5169
5.338666667e+07,-48.624
5.376000000e+07,-48.0661
5.413333333e+07,-53.906
5.450666667e+07,-46.6633
5.488000000e+07,-52.8559
5.525333333e+07,-55.4127
5.562666667e+07,-60.0845
5.600000000e+07,-60.3756
5.637333333e+07,-54.2302
5.674666667e+07,-54.8948
5.712000000e+07,-56.2795
5.749333333e+07,-53.0743
5.786666667e+07,-54.1715
5.824000000e+07,-50.0377
5.861333333e+07,-51.9289
5.898666667e+07,-47.8369
5.936000000e+07,-48.2636
5.973333333e+07,-35.2518
6.010666667e+07,-32.0832
6.048000000e+07,-48.884
6.085333333e+07,-50.0637
6.122666667e+07,-49.5335
6.160000000e+07,-53.2451
6.197333333e+07,-59.3537
6.234666667e+07,-53.8257
6.272000000e+07,-51.6697
6.309333333e+07,-54.2254
6.346666667e+07,-55.0224
6.384000000e+07,-49.4271
6.421333333e+07,-54.6003
6.458666667e+07,-52.4314
6.496000000e+07,-49.0707
6.533333333e+07,-46.3125
6.570666667e+07,-46.1085
6.608000000e+07,-53.5812
6.645333333e+07,-46.8761
6.682666667e+07,-52.0011
6.720000000e+07,-58.8121
6.757333333e+07,-62.2661
6.794666667e+07,-58.2865
6.832000000e+07,-59.7014
6.869333333e+07,-64.0227
6.906666667e+07,-64.5549
6.944000000e+07,-57.3026
6.981333333e+07,-56.6502
7.018666667e+07,-53.7015
7.056000000e+07,-52.5345
7.093333333e+07,-51.3362
7.130666667e+07,-54.6451
7.168000000e+07,-55.3648
7.205333333e+07,-47.5
7.242666667e+07,-58.0214
7.280000000e+07,-57.3207
7.317333333e+07,-55.6997
7.354666667e+07,-58.9484
7.392000000e+07,-60.378
7.429333333e+07,-63.8909
7.466666667e+07,-62.0327
7.504000000e+07,-60.3544
7.541333333e+07,-66.8573
7.578666667e+07,-55.1743
7.616000000e+07,-55.2019
7.653333333e+07,-56.6304
7.690666667e+07,-57.4793
7.728000000e+07,-57.4731
7.765333333e+07,-60.4062
7.802666667e+07,-56.2896
7.840000000e+07,-54.6179
7.877333333e+07,-59.3522
7.914666667e+07,-64.7445
7.952000000e+07,-55.8118
7.989333333e+07,-56.8869
8.026666667e+07,-61.8403
8.064000000e+07,-62.5075
8.101333333e+07,-58.8047
8.138666667e+07,-64.0124
8.176000000e+07,-56.0095
8.213333333e+07,-54.7316
8.250666667e+07,-59.1575
8.288000000e+07,-55.3373
8.325333333e+07,-54.4309
8.362666667e+07,-54.9576
8.400000000e+07,-44.1752
8.437333333e+07,-49.9174
8.474666667e+07,-49.6952
8.512000000e+07,-56.622
8.549333333e+07,-57.2412
8.586666667e+07,-67.4861
8.624000000e+07,-67.9133
8.661333333e+07,-67.8098
8.698666667e+07,-58.9527
8.736000000e+07,-55.0064
8.773333333e+07,-64.1256
8.810666667e+07,-64.4522
8.848000000e+07,-62.6357
8.885333333e+07,-63.1844
8.922666667e+07,-60.8982
8.960000000e+07,-61.1465
8.997333333e+07,-49.5885
9.034666667e+07,-60.5515
9.072000000e+07,-65.2946
9.109333333e+07,-60.9259
9.146666667e+07,-61.7351
9.184000000e+07,-62.7021
9.221333333e+07,-71.0421
9.258666667e+07,-54.4766
9.296000000e+07,-56.1594
9.333333333e+07,-63.524
9.370666667e+07,-67.3265
9.408000000e+07,-63.4665
9.445333333e+07,-63.7351
9.482666667e+07,-61.3881
9.520000000e+07,-49.5134
9.557333333e+07,-49.7234
9.594666667e+07,-47.6397
9.632000000e+07,-52.1236
9.669333333e+07,-60.3009
9.706666667e+07,-64.693
9.744000000e+07,-60.6915
9.781333333e+07,-55.7178
9.818666667e+07,-53.6769
9.856000000e+07,-65.7618
9.893333333e+07,-62.5798
9.930666667e+07,-64.5865
9.968000000e+07,-68.7124
1.000533333e+08,-63.754
1.004266667e+08,-59.9374
1.008000000e+08,-56.2418
1.011733333e+08,-56.9726
1.015466667e+08,-61.9341
1.019200000e+08,-67.7628
1.022933333e+08,-64.3884
1.026666667e+08,-72.2001
1.030400000e+08,-69.2448
1.034133333e+08,-56.4013
1.037866667e+08,-54.7235
1.041600000e+08,-61.1808
1.045333333e+08,-62.6966
1.049066667e+08,-65.3076
1.052800000e+08,-66.6366
1.056533333e+08,-65.9625
1.060266667e+08,-55.7526
1.064000000e+08,-53.6039
1.067733333e+08,-55.1939
1.071466667e+08,-58.0207
1.075200000e+08,-61.2829
1.078933333e+08,-51.7093
1.082666667e+08,-52.3974
1.086400000e+08,-56.2804
1.090133333e+08,-52.7922
1.093866667e+08,-52.4212
1.097600000e+08,-69.0306
1.101333333e+08,-67.6064
1.105066667e+08,-68.4642
1.108800000e+08,-60.9199
1.112533333e+08,-58.2115
1.116266667e+08,-55.1308
1.120000000e+08,-50.9061
1.123733333e+08,-58.5362
1.127466667e+08,-60.5377
1.131200000e+08,-61.9189
1.134933333e+08,-70.9227
1.138666667e+08,-61.6233
1.142400000e+08,-62.9359
1.146133333e+08,-54.8893
1.149866667e+08,-65.3664
1.153600000e+08,-65.022
1.157333333e+08,-66.8862
1.161066667e+08,-67.6363
1.164800000e+08,-73.0145
1.168533333e+08,-68.6389
1.172266667e+08,-50.2526
1.176000000e+08,-53.7692
1.179733333e+08,-66.8297
1.183466667e+08,-67.9257
1.187200000e+08,-66.4501
1.190933333e+08,-69.4667
1.194666667e+08,-58.609
1.198400000e+08,-35.3059
1.202133333e+08,-36.0542
1.205866667e+08,-62.101
1.209600000e+08,-60.3938
1.213333333e+08,-59.7962
1.217066667e+08,-64.1924
1.220800000e+08,-64.1475
1.224533333e+08,-51.0349
1.228266667e+08,-49.4264
1.232000000e+08,-63.9166
1.235733333e+08,-72.2151
1.239466667e+08,-67.7766
1.243200000e+08,-68.3244
1.246933333e+08,-61.8826
1.250666667e+08,-58.1281
1.254400000e+08,-52.9201
1.258133333e+08,-59.6137
1.261866667e+08,-67.7391
1.265600000e+08,-71.329
1.269333333e+08,-61.5919
1.273066667e+08,-58.8115
1.276800000e+08,-55.054
1.280533333e+08,-49.695
1.284266667e+08,-57.2488
1.288000000e+08,-62.8808
1.291733333e+08,-65.7474
1.295466667e+08,-65.4382
1.299200000e+08,-67.1612
1.302933333e+08,-62.8893
1.306666667e+08,-50.892
1.310400000e+08,-52.84
1.314133333e+08,-58.6396
1.317866667e+08,-48.9213
1.321600000e+08,-48.9724
1.325333333e+08,-59.7771
1.329066667e+08,-58.9692
1.332800000e+08,-53.6872
1.336533333e+08,-52.4884
1.340266667e+08,-52.422
1.344000000e+08,-60.1583
1.347733333e+08,-60.8492
1.351466667e+08,-63.3835
1.355200000e+08,-65.9598
1.358933333e+08,-57.9286
1.362666667e+08,-55.4029
1.366400000e+08,-55.2912
1.370133333e+08,-67.61
1.373866667e+08,-62.7463
1.377600000e+08,-62.8554
1.381333333e+08,-64.2114
1.385066667e+08,-63.3734
1.388800000e+08,-56.4221
1.392533333e+08,-50.833
1.396266667e+08,-57.7448
1.400000000e+08,-62.6548
1.403733333e+08,-65.0579
1.407466667e+08,-67.0769
1.411200000e+08,-64.8121
1.414933333e+08,-60.3265
1.418666667e+08,-52.4032
1.422400000e+08,-58.0109
1.426133333e+08,-62.1262
1.429866667e+08,-66.0157
1.433600000e+08,-59.2388
1.437333333e+08,-50.2187
1.441066667e+08,-49.8758
1.444800000e+08,-48.5199
1.448533333e+08,-49.9583
1.452266667e+08,-60.4168
1.456000000e+08,-66.1822
1.459733333e+08,-62.4907
1.463466667e+08,-62.1019
1.467200000e+08,-64.4371
1.470933333e+08,-51.7181
1.474666667e+08,-51.5697
1.478400000e+08,-71.3724
1.482133333e+08,-69.4473
1.485866667e+08,-63.8237
1.489600000e+08,-61.7106
1.493333333e+08,-64.7665
1.497066667e+08,-52.7052
1.500800000e+08,-48.5876
1.504533333e+08,-61.3911
1.508266667e+08,-65.4959
1.512000000e+08,-74.3275
1.515733333e+08,-64.0229
1.519466667e+08,-65.9227
1.523200000e+08,-61.4058
1.526933333e+08,-51.9762
1.530666667e+08,-60.7896
1.534400000e+08,-70.0093
1.538133333e+08,-72.8857
1.541866667e+08,-65.0405
1.545600000e+08,-65.8957
1.549333333e+08,-56.9354
1.553066667e+08,-47.7549
1.556800000e+08,-50.3495
1.560533333e+08,-45.0569
1.564266667e+08,-54.454
1.568000000e+08,-60.6254
1.571733333e+08,-62.585
1.575466667e+08,-61.7391
1.579200000e+08,-52.6294
1.582933333e+08,-53.6253
1.586666667e+08,-65.262
1.590400000e+08,-60.7278
1.594133333e+08,-64.1179
1.597866667e+08,-61.6571
1.601600000e+08,-60.7568
1.605333333e+08,-52.1924
1.609066667e+08,-51.0071
1.612800000e+08,-54.8263
1.616533333e+08,-61.97
1.620266667e+08,-68.3609
1.624000000e+08,-71.463
1.627733333e+08,-68.703
1.631466667e+08,-58.766
1.635200000e+08,-54.2678
1.638933333e+08,-55.0651
1.642666667e+08,-60.2076
1.646400000e+08,-60.524
1.650133333e+08,-64.8069
1.653866667e+08,-66.8673
1.657600000e+08,-58.3032
1.661333333e+08,-53.7903
1.665066667e+08,-49.9618
1.668800000e+08,-53.3612
1.672533333e+08,-64.5989
1.676266667e+08,-60.3402
1.680000000e+08,-51.0611
1.683733333e+08,-56.4059
1.687466667e+08,-56.2567
1.691200000e+08,-52.0811
1.694933333e+08,-54.8097
1.698666667e+08,-66.0607
1.702400000e+08,-68.0923
1.706133333e+08,-69.9149
1.709866667e+08,-58.3455
1.713600000e+08,-57.4313
1.717333333e+08,-49.1005
1.721066667e+08,-48.6482
1.724800000e+08,-60.6814
1.728533333e+08,-62.0911
1.732266667e+08,-65.2366
1.736000000e+08,-64.0009
1.739733333e+08,-62.947
1.743466667e+08,-53.9993
1.747200000e+08,-51.9503
1.750933333e+08,-67.1127
1.754666667e+08,-67.9579
1.758400000e+08,-70.4569
1.762133333e+08,-70.7389
1.765866667e+08,-64.7741
1.769600000e+08,-55.4952
1.773333333e+08,-48.1947
1.777066667e+08,-59.5794
1.780800000e+08,-67.9888
1.784533333e+08,-72.0844
1.788266667e+08,-66.33
1.792000000e+08,-61.4475
1.795733333e+08,-51.3548
1.799466667e+08,-39.4945
1.803200000e+08,-44.9664
1.806933333e+08,-62.8606
1.810666667e+08,-63.3922
1.814400000e+08,-66.0847
1.818133333e+08,-69.5113
1.821866667e+08,-63.4587
1.825600000e+08,-47.4638
1.829333333e+08,-48.9954
1.833066667e+08,-67.1485
1.836800000e+08,-71.9623
1.840533333e+08,-69.5406
1.844266667e+08,-66.4596
1.848000000e+08,-59.654
1.851733333e+08,-53.2639
1.855466667e+08,-52.5624
1.859200000e+08,-61.4159
1.862933333e+08,-60.1999
1.866666667e+08,-65.4125
1.870400000e+08,-67.3713
1.874133333e+08,-61.7182
1.877866667e+08,-50.6827
1.881600000e+08,-47.459
1.885333333e+08,-57.4226
1.889066667e+08,-65.1823
1.892800000e+08,-67.3267
1.896533333e+08,-64.0042
1.900266667e+08,-62.0181
1.904000000e+08,-56.489
1.907733333e+08,-52.4393
1.911466667e+08,-54.4804
1.915200000e+08,-51.9767
1.918933333e+08,-50.8268
1.922666667e+08,-56.4157
1.926400000e+08,-58.763
1.930133333e+08,-56.2019
1.933866667e+08,-50.9113
1.937600000e+08,-52.5096
1.941333333e+08,-56.7528
1.945066667e+08,-56.5328
1.948800000e+08,-60.6713
1.952533333e+08,-64.5178
1.956266667e+08,-59.1184
1.960000000e+08,-57.2197
1.963733333e+08,-53.8882
1.967466667e+08,-55.3354
1.971200000e+08,-64.0458
1.974933333e+08,-65.5004
1.978666667e+08,-61.8647
1.982400000e+08,-62.1949
1.986133333e+08,-55.4265
1.989866667e+08,-51.4242
1.993600000e+08,-49.4234
1.997333333e+08,-57.9085
2.001066667e+08,-60.557
2.004800000e+08,-63.0762
2.008533333e+08,-74.6878
2.012266667e+08,-63.5921
2.016000000e+08,-59.0141
2.019733333e+08,-53.5397
2.023466667e+08,-63.9777
2.027200000e+08,-69.4319
2.030933333e+08,-63.2931
2.034666667e+08,-61.5024
2.038400000e+08,-44.3835
2.042133333e+08,-45.4773
2.045866667e+08,-46.5065
2.049600000e+08,-50.8733
2.053333333e+08,-70.2079
2.057066667e+08,-70.1181
2.060800000e+08,-69.3383
2.064533333e+08,-64.1962
2.068266667e+08,-63.5873
2.072000000e+08,-52.5984
2.075733333e+08,-56.5005
2.079466667e+08,-62.6788
2.083200000e+08,-65.2756
2.086933333e+08,-67.1973
2.090666667e+08,-64.0323
2.094400000e+08,-63.788
2.098133333e+08,-45.9158
2.101866667e+08,-46.09
2.105600000e+08,-65.5881
2.109333333e+08,-67.298
2.113066667e+08,-71.2164
2.116800000e+08,-68.6645
2.120533333e+08,-68.3602
2.124266667e+08,-56.8313
2.128000000e+08,-54.1768
2.131733333e+08,-66.8967
2.135466667e+08,-68.2275
2.139200000e+08,-64.0147
2.142933333e+08,-62.9537
2.146666667e+08,-60.1088
2.150400000e+08,-52.7881
2.154133333e+08,-47.1772
2.157866667e+08,-50.3243
2.161600000e+08,-50.0158
2.165333333e+08,-65.1455
2.169066667e+08,-66.5705
2.172800000e+08,-59.7745
2.176533333e+08,-59.4072
2.180266667e+08,-54.2449
2.184000000e+08,-61.4495
2.187733333e+08,-63.837
2.191466667e+08,-71.2074
2.195200000e+08,-62.8413
2.198933333e+08,-57.9214
2.202666667e+08,-57.6875
2.206400000e+08,-49.5724
2.210133333e+08,-51.4623
2.213866667e+08,-53.9712
2.217600000e+08,-59.4143
2.221333333e+08,-59.9804
2.225066667e+08,-62.9037
2.228800000e+08,-62.2381
2.232533333e+08,-56.6264
2.236266667e+08,-56.5311
2.240000000e+08,-59.2017
2.243733333e+08,-64.9397
2.247466667e+08,-60.9017
2.251200000e+08,-61.3555
2.254933333e+08,-60.6796
2.258666667e+08,-54.8859
2.262400000e+08,-51.1866
2.266133333e+08,-48.6559
2.269866667e+08,-55.2821
2.273600000e+08,-62.8103
2.277333333e+08,-56.0081
2.281066667e+08,-53.2255
2.284800000e+08,-62.0327
2.288533333e+08,-62.3947
2.292266667e+08,-54.7429
2.296000000e+08,-63.9273
2.299733333e+08,-65.7116
2.303466667e+08,-66.2123
2.307200000e+08,-60.7362
2.310933333e+08,-60.3106
2.314666667e+08,-54.3304
2.318400000e+08,-47.373
2.322133333e+08,-50.1616
2.325866667e+08,-60.9378
2.329600000e+08,-63.8453
2.333333333e+08,-65.1385
2.337066667e+08,-66.6513
2.340800000e+08,-62.8758
2.344533333e+08,-53.4119
2.348266667e+08,-54.5291
2.352000000e+08,-67.3083
2.355733333e+08,-64.6668
2.359466667e+08,-65.5266
2.363200000e+08,-70.9744
2.366933333e+08,-70.8575
2.370666667e+08,-48.2462
2.374400000e+08,-46.466
2.378133333e+08,-64.896
2.381866667e+08,-67.9709
2.385600000e+08,-68.2239
2.389333333e+08,-69.9065
2.393066667e+08,-56.1014
2.396800000e+08,-47.1163
2.400533333e+08,-46.5186
2.404266667e+08,-64.2024
2.408000000e+08,-63.6327
2.411733333e+08,-63.2518
2.415466667e+08,-63.7716
2.419200000e+08,-70.6866
2.422933333e+08,-55.826
2.426666667e+08,-46.4577
2.430400000e+08,-52.6597
2.434133333e+08,-64.9688
2.437866667e+08,-69.4509
2.441600000e+08,-72.4553
2.445333333e+08,-71.0122
2.449066667e+08,-70.9657
2.452800000e+08,-55.9643
2.456533333e+08,-58.5683
2.460266667e+08,-64.8446
2.464000000e+08,-67.0567
2.467733333e+08,-65.4373
2.471466667e+08,-65.2673
2.475200000e+08,-61.3423
2.478933333e+08,-48.156
2.482666667e+08,-48.1205
2.486400000e+08,-57.2934
2.490133333e+08,-63.3507
2.493866667e+08,-65.0293
2.497600000e+08,-66.6718
2.501333333e+08,-63.6929
2.505066667e+08,-57.2955
2.508800000e+08,-55.5103
2.512533333e+08,-56.8132
2.516266667e+08,-53.6911
2.520000000e+08,-45.8847
2.523733333e+08,-54.6725
2.527466667e+08,-55.5132
2.531200000e+08,-57.5713
2.534933333e+08,-50.7412
2.538666667e+08,-51.2047
2.542400000e+08,-57.8174
2.546133333e+08,-58.4012
2.549866667e+08,-65.2607
2.553600000e+08,-70.7434
2.557333333e+08,-61.9736
2.561066667e+08,-57.1383
2.564800000e+08,-57.0948
2.568533333e+08,-63.9264
2.572266667e+08,-66.0586
2.576000000e+08,-64.2794
2.579733333e+08,-65.8992
2.583466667e+08,-60.6954
2.587200000e+08,-53.8716
2.590933333e+08,-48.7537
2.594666667e+08,-49.9783
2.598400000e+08,-61.1701
2.602133333e+08,-61.4656
2.605866667e+08,-66.2215
2.609600000e+08,-68.6794
2.613333333e+08,-63.3153
2.617066667e+08,-55.5075
2.620800000e+08,-54.9522
2.624533333e+08,-73.8924
2.628266667e+08,-65.6086
2.632000000e+08,-62.3584
2.635733333e+08,-61.1463
2.639466667e+08,-66.659
2.643200000e+08,-51.2991
2.646933333e+08,-48.8085
2.650666667e+08,-66.9109
2.654400000e+08,-66.2049
2.658133333e+08,-72.8433
2.661866667e+08,-68.2686
2.665600000e+08,-68.5938
2.669333333e+08,-60.0397
2.673066667e+08,-53.6714
2.676800000e+08,-64.864
2.680533333e+08,-71.4362
2.684266667e+08,-70.6504
2.688000000e+08,-69.3285
2.691733333e+08,-74.6019
2.695466667e+08,-66.6955
2.699200000e+08,-48.8482
2.702933333e+08,-52.5951
2.706666667e+08,-69.6424
2.710400000e+08,-78.829
2.714133333e+08,-65.4114
2.717866667e+08,-65.2203
2.721600000e+08,-69.0368
2.725333333e+08,-54.5624
2.729066667e+08,-55.327
2.732800000e+08,-80.918
2.736533333e+08,-76.648
2.740266667e+08,-76.7993
2.744000000e+08,-68.6996
2.747733333e+08,-65.0136
2.751466667e+08,-49.7063
2.755200000e+08,-48.5786
2.758933333e+08,-44.5377
2.762666667e+08,-46.0419
2.766400000e+08,-64.2871
2.770133333e+08,-62.9871
2.773866667e+08,-62.4014
2.777600000e+08,-59.7214
2.781333333e+08,-56.1853
2.785066667e+08,-65.263
2.788800000e+08,-64.4005
2.792533333e+08,-65.7293
2.796266667e+08,-67.3274
2.800000000e+08,-61.1195

