Model,MDO3104
Firmware Version,1.30

Waveform Type,RF_FD
Point Format,Y
Horizontal Units,Hz
Horizontal Scale,2.8e+07
,
Sample Interval,373333
Record Length,751
Gating,0.133155792277% to 100.0%
Probe Attenuation,1
Vertical Units,dBm
Vertical Offset,0
Vertical Scale,10
Vertical Position,0
Center Frequency,1.4e+08
Span,2.8e+08
Reference Level,-15
Label,
FREQUENCY,FD NORM
0.000000000e+00,-60.3339
3.733333333e+05,-70.0075
7.466666667e+05,-81.7613
1.120000000e+06,-79.8677
1.493333333e+06,-70.657
1.866666667e+06,-69.667
2.240000000e+06,-72.401
2.613333333e+06,-65.5375
2.986666667e+06,-72.8081
3.360000000e+06,-60.4478
3.733333333e+06,-62.8034
4.106666667e+06,-65.2163
4.480000000e+06,-66.2269
4.853333333e+06,-69.2165
5.226666667e+06,-64.1286
5.600000000e+06,-67.9341
5.973333333e+06,-68.9111
6.346666667e+06,-69.1648
6.720000000e+06,-67.3098
7.093333333e+06,-70.9046
7.466666667e+06,-69.3863
7.840000000e+06,-70.3759
8.213333333e+06,-68.862
8.586666667e+06,-70.4413
8.960000000e+06,-74.3854
9.333333333e+06,-72.7353
9.706666667e+06,-70.6595
1.008000000e+07,-67.766
1.045333333e+07,-72.3637
1.082666667e+07,-74.5029
1.120000000e+07,-68.4209
1.157333333e+07,-72.5884
1.194666667e+07,-73.8547
1.232000000e+07,-74.2396
1.269333333e+07,-74.976
1.306666667e+07,-66.6451
1.344000000e+07,-65.2418
1.381333333e+07,-67.7247
1.418666667e+07,-68.9668
1.456000000e+07,-72.4947
1.493333333e+07,-72.6983
1.530666667e+07,-71.011
1.568000000e+07,-70.5013
1.605333333e+07,-74.8964
1.642666667e+07,-73.6484
1.680000000e+07,-70.0708
1.717333333e+07,-67.992
1.754666667e+07,-67.8388
1.792000000e+07,-78.6218
1.829333333e+07,-72.9322
1.866666667e+07,-65.7647
1.904000000e+07,-66.5539
1.941333333e+07,-73.7789
1.978666667e+07,-69.6368
2.016000000e+07,-65.6054
2.053333333e+07,-72.3376
2.090666667e+07,-74.9897
2.128000000e+07,-65.5057
2.165333333e+07,-70.5344
2.202666667e+07,-67.9537
2.240000000e+07,-66.1277
2.277333333e+07,-68.7266
2.314666667e+07,-67.2524
2.352000000e+07,-65.7029
2.389333333e+07,-66.9779
2.426666667e+07,-60.6555
2.464000000e+07,-59.3908
2.501333333e+07,-54.6847
2.538666667e+07,-62.9145
2.576000000e+07,-68.2941
2.613333333e+07,-65.9663
2.650666667e+07,-75.0519
2.688000000e+07,-64.1761
2.725333333e+07,-60.7077
2.762666667e+07,-65.5321
2.800000000e+07,-67.7165
2.837333333e+07,-71.4917
2.874666667e+07,-73.2184
2.912000000e+07,-72.321
2.949333333e+07,-77.6715
2.986666667e+07,-60.9457
3.024000000e+07,-63.0467
3.061333333e+07,-70.0333
3.098666667e+07,-73.071
3.136000000e+07,-74.4429
3.173333333e+07,-77.8557
3.210666667e+07,-74.5563
3.248000000e+07,-62.8219
3.285333333e+07,-61.7034
3.322666667e+07,-74.7875
3.360000000e+07,-76.2518
3.397333333e+07,-71.7377
3.434666667e+07,-82.9899
3.472000000e+07,-76.0224
3.509333333e+07,-63.4824
3.546666667e+07,-58.7175
3.584000000e+07,-58.1033
3.621333333e+07,-58.9035
3.658666667e+07,-73.4427
3.696000000e+07,-73.2684
3.733333333e+07,-71.8505
3.770666667e+07,-67.2099
3.808000000e+07,-59.7127
3.845333333e+07,-65.6539
3.882666667e+07,-70.0225
3.920000000e+07,-68.5721
3.957333333e+07,-71.8116
3.994666667e+07,-70.9187
4.032000000e+07,-74.2557
4.069333333e+07,-60.3452
4.106666667e+07,-63.2752
4.144000000e+07,-69.4324
4.181333333e+07,-73.4109
4.218666667e+07,-70.8271
4.256000000e+07,-72.9152
4.293333333e+07,-68.9271
4.330666667e+07,-60.6332
4.368000000e+07,-59.9365
4.405333333e+07,-63.3978
4.442666667e+07,-70.1184
4.480000000e+07,-72.0054
4.517333333e+07,-71.554
4.554666667e+07,-72.4136
4.592000000e+07,-62.0833
4.629333333e+07,-60.0633
4.666666667e+07,-60.4094
4.704000000e+07,-66.1819
4.741333333e+07,-72.9371
4.778666667e+07,-64.8054
4.816000000e+07,-67.3907
4.853333333e+07,-68.0365
4.890666667e+07,-60.0944
4.928000000e+07,-58.7436
4.965333333e+07,-69.0729
5.002666667e+07,-73.6549
5.040000000e+07,-75.5621
5.077333333e+07,-76.0934
5.114666667e+07,-71.6309
5.152000000e+07,-62.8958
5.189333333e+07,-55.4463
5.226666667e+07,-63.9574
5.264000000e+07,-67.3757
5.301333333e+07,-72.7518
5.338666667e+07,-74.3137
5.376000000e+07,-73.0213
5.413333333e+07,-67.5046
5.450666667e+07,-57.6428
5.488000000e+07,-60.9659
5.525333333e+07,-78.3173
5.562666667e+07,-70.4094
5.600000000e+07,-72.0317
5.637333333e+07,-79.413
5.674666667e+07,-71.0539
5.712000000e+07,-53.3785
5.749333333e+07,-53.5475
5.786666667e+07,-72.4069
5.824000000e+07,-78.9729
5.861333333e+07,-77.7395
5.898666667e+07,-74.6694
5.936000000e+07,-78.3355
5.973333333e+07,-36.9176
6.010666667e+07,-34.5822
6.048000000e+07,-53.2817
6.085333333e+07,-74.3394
6.122666667e+07,-78.5727
6.160000000e+07,-71.9565
6.197333333e+07,-72.003
6.234666667e+07,-58.8074
6.272000000e+07,-52.6445
6.309333333e+07,-62.5364
6.346666667e+07,-71.3869
6.384000000e+07,-70.7096
6.421333333e+07,-70.1242
6.458666667e+07,-66.948
6.496000000e+07,-66.3194
6.533333333e+07,-54.3321
6.570666667e+07,-56.9361
6.608000000e+07,-68.2747
6.645333333e+07,-72.1655
6.682666667e+07,-70.6991
6.720000000e+07,-69.2975
6.757333333e+07,-72.6758
6.794666667e+07,-58.1836
6.832000000e+07,-58.8481
6.869333333e+07,-65.7896
6.906666667e+07,-68.4311
6.944000000e+07,-69.0807
6.981333333e+07,-71.5151
7.018666667e+07,-66.1093
7.056000000e+07,-57.2106
7.093333333e+07,-55.7225
7.130666667e+07,-63.0614
7.168000000e+07,-64.4485
7.205333333e+07,-64.62
7.242666667e+07,-71.8527
7.280000000e+07,-65.3498
7.317333333e+07,-60.2224
7.354666667e+07,-58.1069
7.392000000e+07,-59.8509
7.429333333e+07,-65.4302
7.466666667e+07,-66.727
7.504000000e+07,-67.8103
7.541333333e+07,-67.0107
7.578666667e+07,-61.2465
7.616000000e+07,-57.5538
7.653333333e+07,-56.6998
7.690666667e+07,-68.7259
7.728000000e+07,-69.4789
7.765333333e+07,-66.2642
7.802666667e+07,-67.0699
7.840000000e+07,-68.8699
7.877333333e+07,-59.1401
7.914666667e+07,-54.8825
7.952000000e+07,-58.0761
7.989333333e+07,-69.861
8.026666667e+07,-71.7043
8.064000000e+07,-70.2044
8.101333333e+07,-75.3729
8.138666667e+07,-68.7158
8.176000000e+07,-55.834
8.213333333e+07,-56.4302
8.250666667e+07,-73.8802
8.288000000e+07,-72.7478
8.325333333e+07,-82.9359
8.362666667e+07,-59.5288
8.400000000e+07,-51.9544
8.437333333e+07,-55.4045
8.474666667e+07,-53.9246
8.512000000e+07,-66.9124
8.549333333e+07,-73.3955
8.586666667e+07,-67.1529
8.624000000e+07,-70.0144
8.661333333e+07,-72.8013
8.698666667e+07,-57.0584
8.736000000e+07,-52.9654
8.773333333e+07,-64.87
8.810666667e+07,-66.7777
8.848000000e+07,-69.7525
8.885333333e+07,-70.4229
8.922666667e+07,-74.7458
8.960000000e+07,-68.1258
8.997333333e+07,-58.4509
9.034666667e+07,-63.9833
9.072000000e+07,-74.1353
9.109333333e+07,-72.324
9.146666667e+07,-70.9093
9.184000000e+07,-70.5575
9.221333333e+07,-68.6711
9.258666667e+07,-54.5724
9.296000000e+07,-56.5596
9.333333333e+07,-71.2906
9.370666667e+07,-70.71
9.408000000e+07,-70.1611
9.445333333e+07,-69.9384
9.482666667e+07,-70.5567
9.520000000e+07,-52.7194
9.557333333e+07,-52.5511
9.594666667e+07,-54.7588
9.632000000e+07,-69.2438
9.669333333e+07,-66.2638
9.706666667e+07,-68.0191
9.744000000e+07,-68.0325
9.781333333e+07,-56.0849
9.818666667e+07,-53.965
9.856000000e+07,-61.7252
9.893333333e+07,-71.9007
9.930666667e+07,-69.596
9.968000000e+07,-67.8268
1.000533333e+08,-67.6622
1.004266667e+08,-60.5743
1.008000000e+08,-53.652
1.011733333e+08,-55.2421
1.015466667e+08,-63.1409
1.019200000e+08,-68.7656
1.022933333e+08,-71.8913
1.026666667e+08,-65.8879
1.030400000e+08,-66.8042
1.034133333e+08,-55.1556
1.037866667e+08,-56.8909
1.041600000e+08,-64.7394
1.045333333e+08,-69.6141
1.049066667e+08,-68.9107
1.052800000e+08,-67.3779
1.056533333e+08,-60.7675
1.060266667e+08,-56.7401
1.064000000e+08,-53.2869
1.067733333e+08,-55.3874
1.071466667e+08,-62.1262
1.075200000e+08,-65.1476
1.078933333e+08,-51.5662
1.082666667e+08,-53.4785
1.086400000e+08,-60.3985
1.090133333e+08,-55.2732
1.093866667e+08,-55.3723
1.097600000e+08,-67.1284
1.101333333e+08,-69.9433
1.105066667e+08,-69.2786
1.108800000e+08,-68.6714
1.112533333e+08,-65.8222
1.116266667e+08,-53.205
1.120000000e+08,-51.1695
1.123733333e+08,-62.5113
1.127466667e+08,-64.6666
1.131200000e+08,-64.7982
1.134933333e+08,-67.9081
1.138666667e+08,-67.1517
1.142400000e+08,-60.022
1.146133333e+08,-54.0111
1.149866667e+08,-64.9433
1.153600000e+08,-66.4193
1.157333333e+08,-68.9334
1.161066667e+08,-66.7541
1.164800000e+08,-71.2706
1.168533333e+08,-64.0842
1.172266667e+08,-50.137
1.176000000e+08,-53.6464
1.179733333e+08,-74.3075
1.183466667e+08,-75.8867
1.187200000e+08,-71.3309
1.190933333e+08,-71.4508
1.194666667e+08,-65.068
1.198400000e+08,-36.5268
1.202133333e+08,-37.2135
1.205866667e+08,-68.261
1.209600000e+08,-70.7633
1.213333333e+08,-69.2802
1.217066667e+08,-69.6513
1.220800000e+08,-67.7467
1.224533333e+08,-50.438
1.228266667e+08,-48.9488
1.232000000e+08,-67.5867
1.235733333e+08,-67.3819
1.239466667e+08,-70.2262
1.243200000e+08,-70.0456
1.246933333e+08,-67.1514
1.250666667e+08,-57.5091
1.254400000e+08,-51.6338
1.258133333e+08,-60.2589
1.261866667e+08,-69.6521
1.265600000e+08,-78.6932
1.269333333e+08,-73.3571
1.273066667e+08,-64.835
1.276800000e+08,-58.4997
1.280533333e+08,-49.5612
1.284266667e+08,-54.0296
1.288000000e+08,-63.7246
1.291733333e+08,-62.8893
1.295466667e+08,-65.1961
1.299200000e+08,-65.1492
1.302933333e+08,-62.3709
1.306666667e+08,-51.9627
1.310400000e+08,-53.0924
1.314133333e+08,-63.1447
1.317866667e+08,-50.839
1.321600000e+08,-50.2648
1.325333333e+08,-73.6463
1.329066667e+08,-62.07
1.332800000e+08,-51.8944
1.336533333e+08,-51.5435
1.340266667e+08,-53.1921
1.344000000e+08,-62.0419
1.347733333e+08,-66.3875
1.351466667e+08,-62.8715
1.355200000e+08,-64.4827
1.358933333e+08,-58.369
1.362666667e+08,-54.7551
1.366400000e+08,-54.3655
1.370133333e+08,-63.9567
1.373866667e+08,-65.0337
1.377600000e+08,-66.4869
1.381333333e+08,-67.9319
1.385066667e+08,-65.2965
1.388800000e+08,-54.5729
1.392533333e+08,-50.6986
1.396266667e+08,-61.7184
1.400000000e+08,-65.38
1.403733333e+08,-66.031
1.407466667e+08,-67.8545
1.411200000e+08,-62.7153
1.414933333e+08,-59.0124
1.418666667e+08,-52.4793
1.422400000e+08,-57.6952
1.426133333e+08,-70.2417
1.429866667e+08,-66.9786
1.433600000e+08,-67.4433
1.437333333e+08,-55.8075
1.441066667e+08,-59.7595
1.444800000e+08,-48.0742
1.448533333e+08,-49.2787
1.452266667e+08,-68.9086
1.456000000e+08,-69.9866
1.459733333e+08,-67.1261
1.463466667e+08,-66.8511
1.467200000e+08,-66.5414
1.470933333e+08,-52.866
1.474666667e+08,-52.6446
1.478400000e+08,-74.083
1.482133333e+08,-76.4489
1.485866667e+08,-74.8309
1.489600000e+08,-75.9681
1.493333333e+08,-74.5823
1.497066667e+08,-51.5084
1.500800000e+08,-48.3381
1.504533333e+08,-61.704
1.508266667e+08,-67.1012
1.512000000e+08,-67.6504
1.515733333e+08,-66.7035
1.519466667e+08,-66.4388
1.523200000e+08,-62.0509
1.526933333e+08,-52.8549
1.530666667e+08,-60.6269
1.534400000e+08,-71.9556
1.538133333e+08,-79.143
1.541866667e+08,-72.6996
1.545600000e+08,-74.15
1.549333333e+08,-65.5901
1.553066667e+08,-49.1699
1.556800000e+08,-52.3239
1.560533333e+08,-48.77
1.564266667e+08,-61.3186
1.568000000e+08,-68.4999
1.571733333e+08,-62.5903
1.575466667e+08,-62.3753
1.579200000e+08,-52.9095
1.582933333e+08,-53.0103
1.586666667e+08,-61.1407
1.590400000e+08,-69.2124
1.594133333e+08,-72.7802
1.597866667e+08,-71.373
1.601600000e+08,-63.7763
1.605333333e+08,-51.6528
1.609066667e+08,-49.8645
1.612800000e+08,-53.8493
1.616533333e+08,-59.7762
1.620266667e+08,-61.5108
1.624000000e+08,-61.8666
1.627733333e+08,-67.2087
1.631466667e+08,-58.4558
1.635200000e+08,-52.4654
1.638933333e+08,-57.5121
1.642666667e+08,-64.9724
1.646400000e+08,-68.9443
1.650133333e+08,-64.2867
1.653866667e+08,-66.0439
1.657600000e+08,-61.4344
1.661333333e+08,-51.5421
1.665066667e+08,-50.5977
1.668800000e+08,-56.6545
1.672533333e+08,-62.3564
1.676266667e+08,-59.8858
1.680000000e+08,-65.5025
1.683733333e+08,-64.1691
1.687466667e+08,-57.4045
1.691200000e+08,-54.5832
1.694933333e+08,-57.0779
1.698666667e+08,-68.8817
1.702400000e+08,-64.975
1.706133333e+08,-62.1387
1.709866667e+08,-61.3439
1.713600000e+08,-58.7112
1.717333333e+08,-47.9523
1.721066667e+08,-48.2456
1.724800000e+08,-62.3943
1.728533333e+08,-66.74
1.732266667e+08,-68.2479
1.736000000e+08,-64.1397
1.739733333e+08,-65.0946
1.743466667e+08,-53.5179
1.747200000e+08,-51.761
1.750933333e+08,-63.3619
1.754666667e+08,-77.9461
1.758400000e+08,-69.9147
1.762133333e+08,-68.5259
1.765866667e+08,-68.1571
1.769600000e+08,-51.4037
1.773333333e+08,-46.6726
1.777066667e+08,-56.4487
1.780800000e+08,-66.4742
1.784533333e+08,-67.6597
1.788266667e+08,-71.9059
1.792000000e+08,-70.8486
1.795733333e+08,-67.359
1.799466667e+08,-52.0371
1.803200000e+08,-56.7303
1.806933333e+08,-79.825
1.810666667e+08,-81.6194
1.814400000e+08,-72.5769
1.818133333e+08,-68.2677
1.821866667e+08,-66.819
1.825600000e+08,-47.4965
1.829333333e+08,-48.8773
1.833066667e+08,-63.8818
1.836800000e+08,-65.8075
1.840533333e+08,-72.4896
1.844266667e+08,-65.2133
1.848000000e+08,-63.4343
1.851733333e+08,-54.1834
1.855466667e+08,-52.5781
1.859200000e+08,-62.3019
1.862933333e+08,-68.0385
1.866666667e+08,-67.0978
1.870400000e+08,-68.9257
1.874133333e+08,-60.3459
1.877866667e+08,-53.0661
1.881600000e+08,-48.0563
1.885333333e+08,-53.4806
1.889066667e+08,-62.177
1.892800000e+08,-62.0936
1.896533333e+08,-62.4026
1.900266667e+08,-68.3827
1.904000000e+08,-58.548
1.907733333e+08,-54.2239
1.911466667e+08,-57.5566
1.915200000e+08,-56.6966
1.918933333e+08,-54.5413
1.922666667e+08,-62.4155
1.926400000e+08,-65.6449
1.930133333e+08,-58.8137
1.933866667e+08,-49.6303
1.937600000e+08,-51.2019
1.941333333e+08,-57.9802
1.945066667e+08,-65.412
1.948800000e+08,-65.8974
1.952533333e+08,-62.5059
1.956266667e+08,-64.4485
1.960000000e+08,-56.6412
1.963733333e+08,-55.6283
1.967466667e+08,-56.9207
1.971200000e+08,-65.7612
1.974933333e+08,-61.1032
1.978666667e+08,-65.0085
1.982400000e+08,-61.7645
1.986133333e+08,-55.764
1.989866667e+08,-49.7065
1.993600000e+08,-48.8928
1.997333333e+08,-58.2827
2.001066667e+08,-61.1486
2.004800000e+08,-64.6479
2.008533333e+08,-66.0151
2.012266667e+08,-63.3112
2.016000000e+08,-55.7554
2.019733333e+08,-52.8262
2.023466667e+08,-62.5319
2.027200000e+08,-71.1013
2.030933333e+08,-72.0983
2.034666667e+08,-65.9983
2.038400000e+08,-47.9856
2.042133333e+08,-48.7738
2.045866667e+08,-46.8844
2.049600000e+08,-53.0333
2.053333333e+08,-67.8855
2.057066667e+08,-66.9916
2.060800000e+08,-66.3691
2.064533333e+08,-68.9268
2.068266667e+08,-64.355
2.072000000e+08,-51.9176
2.075733333e+08,-54.7366
2.079466667e+08,-65.4386
2.083200000e+08,-69.4802
2.086933333e+08,-80.2965
2.090666667e+08,-66.7626
2.094400000e+08,-70.7747
2.098133333e+08,-46.8209
2.101866667e+08,-46.8389
2.105600000e+08,-66.439
2.109333333e+08,-70.9072
2.113066667e+08,-62.1933
2.116800000e+08,-62.1531
2.120533333e+08,-66.4854
2.124266667e+08,-54.7486
2.128000000e+08,-52.3153
2.131733333e+08,-66.9469
2.135466667e+08,-71.0671
2.139200000e+08,-71.4557
2.142933333e+08,-65.5527
2.146666667e+08,-61.0847
2.150400000e+08,-52.8365
2.154133333e+08,-46.2279
2.157866667e+08,-52.6174
2.161600000e+08,-64.0779
2.165333333e+08,-66.016
2.169066667e+08,-67.2588
2.172800000e+08,-65.1084
2.176533333e+08,-63.151
2.180266667e+08,-52.5783
2.184000000e+08,-55.5308
2.187733333e+08,-67.333
2.191466667e+08,-67.9412
2.195200000e+08,-68.1816
2.198933333e+08,-64.2924
2.202666667e+08,-58.8225
2.206400000e+08,-47.2211
2.210133333e+08,-47.8722
2.213866667e+08,-54.7523
2.217600000e+08,-63.3354
2.221333333e+08,-61.225
2.225066667e+08,-61.003
2.228800000e+08,-67.525
2.232533333e+08,-56.3208
2.236266667e+08,-54.6455
2.240000000e+08,-58.7553
2.243733333e+08,-63.0228
2.247466667e+08,-64.7283
2.251200000e+08,-63.8103
2.254933333e+08,-64.0104
2.258666667e+08,-56.2909
2.262400000e+08,-51.5816
2.266133333e+08,-49.6733
2.269866667e+08,-57.9851
2.273600000e+08,-66.3055
2.277333333e+08,-49.3134
2.281066667e+08,-47.3993
2.284800000e+08,-61.6711
2.288533333e+08,-57.0489
2.292266667e+08,-54.0004
2.296000000e+08,-61.0524
2.299733333e+08,-69.4993
2.303466667e+08,-69.6196
2.307200000e+08,-63.8354
2.310933333e+08,-61.6823
2.314666667e+08,-54.716
2.318400000e+08,-47.4475
2.322133333e+08,-51.9587
2.325866667e+08,-64.9923
2.329600000e+08,-65.7376
2.333333333e+08,-74.9297
2.337066667e+08,-67.2833
2.340800000e+08,-62.6776
2.344533333e+08,-53.9292
2.348266667e+08,-55.0384
2.352000000e+08,-70.563
2.355733333e+08,-69.9233
2.359466667e+08,-69.7327
2.363200000e+08,-70.7698
2.366933333e+08,-65.6479
2.370666667e+08,-48.45
2.374400000e+08,-46.8041
2.378133333e+08,-66.0253
2.381866667e+08,-66.0798
2.385600000e+08,-71.621
2.389333333e+08,-69.3065
2.393066667e+08,-56.582
2.396800000e+08,-47.1161
2.400533333e+08,-47.0273
2.404266667e+08,-61.4048
2.408000000e+08,-80.3195
2.411733333e+08,-72.7016
2.415466667e+08,-72.1749
2.419200000e+08,-83.4476
2.422933333e+08,-57.7413
2.426666667e+08,-46.8569
2.430400000e+08,-52.6468
2.434133333e+08,-67.0926
2.437866667e+08,-75.4103
2.441600000e+08,-74.9191
2.445333333e+08,-71.1257
2.449066667e+08,-68.1676
2.452800000e+08,-52.8349
2.456533333e+08,-54.7912
2.460266667e+08,-71.9909
2.464000000e+08,-73.259
2.467733333e+08,-76.4025
2.471466667e+08,-69.1831
2.475200000e+08,-62.9839
2.478933333e+08,-48.2816
2.482666667e+08,-47.9808
2.486400000e+08,-57.1748
2.490133333e+08,-64.7959
2.493866667e+08,-67.0302
2.497600000e+08,-69.2673
2.501333333e+08,-65.977
2.505066667e+08,-57.3036
2.508800000e+08,-54.8379
2.512533333e+08,-58.4389
2.516266667e+08,-55.07
2.520000000e+08,-48.2124
2.523733333e+08,-58.7894
2.527466667e+08,-64.6516
2.531200000e+08,-56.0416
2.534933333e+08,-49.7588
2.538666667e+08,-50.9191
2.542400000e+08,-60.5257
2.546133333e+08,-63.1297
2.549866667e+08,-66.4935
2.553600000e+08,-64.9639
2.557333333e+08,-66.5165
2.561066667e+08,-56.4092
2.564800000e+08,-57.0111
2.568533333e+08,-62.8876
2.572266667e+08,-69.3866
2.576000000e+08,-70.2819
2.579733333e+08,-66.0381
2.583466667e+08,-62.7793
2.587200000e+08,-53.1663
2.590933333e+08,-49.3588
2.594666667e+08,-51.3075
2.598400000e+08,-65.7837
2.602133333e+08,-71.0621
2.605866667e+08,-66.9781
2.609600000e+08,-64.127
2.613333333e+08,-62.0096
2.617066667e+08,-54.7154
2.620800000e+08,-54.7521
2.624533333e+08,-66.2913
2.628266667e+08,-74.2036
2.632000000e+08,-66.3306
2.635733333e+08,-54.3575
2.639466667e+08,-59.0031
2.643200000e+08,-51.4429
2.646933333e+08,-47.9703
2.650666667e+08,-60.604
2.654400000e+08,-68.1748
2.658133333e+08,-70.3777
2.661866667e+08,-68.8751
2.665600000e+08,-69.1371
2.669333333e+08,-61.0442
2.673066667e+08,-53.7261
2.676800000e+08,-62.0539
2.680533333e+08,-66.2494
2.684266667e+08,-74.9101
2.688000000e+08,-67.5502
2.691733333e+08,-74.2977
2.695466667e+08,-64.3375
2.699200000e+08,-51.5613
2.702933333e+08,-55.2548
2.706666667e+08,-71.134
2.710400000e+08,-74.8473
2.714133333e+08,-69.9713
2.717866667e+08,-69.6094
2.721600000e+08,-74.8652
2.725333333e+08,-54.1446
2.729066667e+08,-55.0109
2.732800000e+08,-77.8774
2.736533333e+08,-66.3013
2.740266667e+08,-65.2864
2.744000000e+08,-69.856
2.747733333e+08,-68.1695
2.751466667e+08,-50.4304
2.755200000e+08,-48.5705
2.758933333e+08,-46.2355
2.762666667e+08,-48.523
2.766400000e+08,-68.4674
2.770133333e+08,-68.9144
2.773866667e+08,-72.6008
2.777600000e+08,-59.9691
2.781333333e+08,-54.8603
2.785066667e+08,-63.9659
2.788800000e+08,-69.0837
2.792533333e+08,-70.0935
2.796266667e+08,-68.1955
2.800000000e+08,-67.9843

