Model,MDO3104
Firmware Version,1.30

Waveform Type,RF_FD
Point Format,Y
Horizontal Units,Hz
Horizontal Scale,2.8e+07
,
Sample Interval,373333
Record Length,751
Gating,0.133155792277% to 100.0%
Probe Attenuation,1
Vertical Units,dBm
Vertical Offset,0
Vertical Scale,10
Vertical Position,0
Center Frequency,1.4e+08
Span,2.8e+08
Reference Level,-15
Label,
FREQUENCY,FD NORM
0.000000000e+00,-61.714
3.733333333e+05,-70.0141
7.466666667e+05,-74.3178
1.120000000e+06,-73.7528
1.493333333e+06,-69.9877
1.866666667e+06,-69.6433
2.240000000e+06,-72.716
2.613333333e+06,-67.142
2.986666667e+06,-67.713
3.360000000e+06,-58.5414
3.733333333e+06,-60.1073
4.106666667e+06,-65.4643
4.480000000e+06,-64.5831
4.853333333e+06,-74.6592
5.226666667e+06,-65.7782
5.600000000e+06,-63.2737
5.973333333e+06,-58.0448
6.346666667e+06,-65.7943
6.720000000e+06,-78.0279
7.093333333e+06,-75.5859
7.466666667e+06,-77.0795
7.840000000e+06,-72.4083
8.213333333e+06,-64.4606
8.586666667e+06,-70.0769
8.960000000e+06,-73.722
9.333333333e+06,-70.1709
9.706666667e+06,-67.5126
1.008000000e+07,-68.8307
1.045333333e+07,-68.0461
1.082666667e+07,-71.9756
1.120000000e+07,-69.2601
1.157333333e+07,-68.8595
1.194666667e+07,-56.3495
1.232000000e+07,-59.3619
1.269333333e+07,-71.0478
1.306666667e+07,-67.7705
1.344000000e+07,-66.1866
1.381333333e+07,-64.0209
1.418666667e+07,-69.4764
1.456000000e+07,-71.9217
1.493333333e+07,-73.9739
1.530666667e+07,-75.1418
1.568000000e+07,-69.6509
1.605333333e+07,-63.0849
1.642666667e+07,-61.5341
1.680000000e+07,-69.606
1.717333333e+07,-71.4521
1.754666667e+07,-66.4963
1.792000000e+07,-55.3024
1.829333333e+07,-57.4852
1.866666667e+07,-67.8752
1.904000000e+07,-60.1528
1.941333333e+07,-61.1811
1.978666667e+07,-73.6852
2.016000000e+07,-71.3622
2.053333333e+07,-69.0275
2.090666667e+07,-70.3201
2.128000000e+07,-67.4063
2.165333333e+07,-72.3638
2.202666667e+07,-69.3999
2.240000000e+07,-68.1375
2.277333333e+07,-66.2861
2.314666667e+07,-66.0848
2.352000000e+07,-60.3002
2.389333333e+07,-64.5896
2.426666667e+07,-64.7438
2.464000000e+07,-58.4877
2.501333333e+07,-53.616
2.538666667e+07,-62.7754
2.576000000e+07,-68.9735
2.613333333e+07,-65.8713
2.650666667e+07,-68.6548
2.688000000e+07,-67.8105
2.725333333e+07,-65.2858
2.762666667e+07,-65.9747
2.800000000e+07,-67.3469
2.837333333e+07,-73.1167
2.874666667e+07,-69.2721
2.912000000e+07,-71.0852
2.949333333e+07,-65.1735
2.986666667e+07,-54.9478
3.024000000e+07,-56.4239
3.061333333e+07,-74.4794
3.098666667e+07,-73.6465
3.136000000e+07,-72.012
3.173333333e+07,-70.1208
3.210666667e+07,-71.1091
3.248000000e+07,-61.7979
3.285333333e+07,-59.7053
3.322666667e+07,-69.2155
3.360000000e+07,-71.1667
3.397333333e+07,-78.9871
3.434666667e+07,-72.2312
3.472000000e+07,-74.0273
3.509333333e+07,-63.3794
3.546666667e+07,-58.758
3.584000000e+07,-48.2725
3.621333333e+07,-49.2451
3.658666667e+07,-74.2449
3.696000000e+07,-83.5378
3.733333333e+07,-72.0692
3.770666667e+07,-68.8484
3.808000000e+07,-59.0831
3.845333333e+07,-62.4099
3.882666667e+07,-72.9039
3.920000000e+07,-74.4485
3.957333333e+07,-70.8263
3.994666667e+07,-75.0661
4.032000000e+07,-76.9187
4.069333333e+07,-58.4063
4.106666667e+07,-59.3844
4.144000000e+07,-70.8015
4.181333333e+07,-53.6126
4.218666667e+07,-53.0813
4.256000000e+07,-71.6677
4.293333333e+07,-75.459
4.330666667e+07,-61.9416
4.368000000e+07,-60.8822
4.405333333e+07,-64.4801
4.442666667e+07,-71.0252
4.480000000e+07,-75.3724
4.517333333e+07,-69.8062
4.554666667e+07,-78.1818
4.592000000e+07,-62.5853
4.629333333e+07,-58.1626
4.666666667e+07,-58.8853
4.704000000e+07,-71.6851
4.741333333e+07,-70.6499
4.778666667e+07,-37.3816
4.816000000e+07,-36.6085
4.853333333e+07,-62.3399
4.890666667e+07,-59.7632
4.928000000e+07,-58.6905
4.965333333e+07,-70.569
5.002666667e+07,-69.8496
5.040000000e+07,-70.4331
5.077333333e+07,-74.0702
5.114666667e+07,-69.5669
5.152000000e+07,-59.516
5.189333333e+07,-54.4898
5.226666667e+07,-64.8484
5.264000000e+07,-69.9067
5.301333333e+07,-71.0824
5.338666667e+07,-74.8321
5.376000000e+07,-49.9282
5.413333333e+07,-48.3298
5.450666667e+07,-56.6618
5.488000000e+07,-60.2166
5.525333333e+07,-74.8967
5.562666667e+07,-75.2505
5.600000000e+07,-77.8246
5.637333333e+07,-71.6222
5.674666667e+07,-69.3004
5.712000000e+07,-53.2925
5.749333333e+07,-53.6579
5.786666667e+07,-67.2802
5.824000000e+07,-68.8229
5.861333333e+07,-75.3021
5.898666667e+07,-78.5833
5.936000000e+07,-72.929
5.973333333e+07,-36.7945
6.010666667e+07,-34.5832
6.048000000e+07,-53.3292
6.085333333e+07,-77.6216
6.122666667e+07,-70.9416
6.160000000e+07,-71.3924
6.197333333e+07,-77.5429
6.234666667e+07,-62.3917
6.272000000e+07,-54.0072
6.309333333e+07,-61.5733
6.346666667e+07,-70.3485
6.384000000e+07,-77.4457
6.421333333e+07,-72.9714
6.458666667e+07,-73.311
6.496000000e+07,-73.6212
6.533333333e+07,-55.7471
6.570666667e+07,-49.3663
6.608000000e+07,-45.5346
6.645333333e+07,-65.166
6.682666667e+07,-67.5667
6.720000000e+07,-67.6602
6.757333333e+07,-75.5253
6.794666667e+07,-55.0735
6.832000000e+07,-55.3959
6.869333333e+07,-68.0342
6.906666667e+07,-66.5244
6.944000000e+07,-69.9945
6.981333333e+07,-68.0553
7.018666667e+07,-65.1814
7.056000000e+07,-59.1725
7.093333333e+07,-56.2406
7.130666667e+07,-62.783
7.168000000e+07,-45.5592
7.205333333e+07,-40.9234
7.242666667e+07,-55.0548
7.280000000e+07,-72.3295
7.317333333e+07,-64.1306
7.354666667e+07,-56.8615
7.392000000e+07,-57.0313
7.429333333e+07,-71.8925
7.466666667e+07,-70.6834
7.504000000e+07,-67.949
7.541333333e+07,-67.2173
7.578666667e+07,-71.2588
7.616000000e+07,-58.6522
7.653333333e+07,-57.6545
7.690666667e+07,-71.0461
7.728000000e+07,-71.582
7.765333333e+07,-53.9534
7.802666667e+07,-48.3843
7.840000000e+07,-60.8184
7.877333333e+07,-58.0225
7.914666667e+07,-54.8858
7.952000000e+07,-61.1486
7.989333333e+07,-69.649
8.026666667e+07,-70.5575
8.064000000e+07,-76.245
8.101333333e+07,-66.3418
8.138666667e+07,-65.4367
8.176000000e+07,-55.5423
8.213333333e+07,-56.9554
8.250666667e+07,-72.8042
8.288000000e+07,-70.1129
8.325333333e+07,-73.3613
8.362666667e+07,-48.3172
8.400000000e+07,-40.1582
8.437333333e+07,-48.1071
8.474666667e+07,-51.8537
8.512000000e+07,-72.5912
8.549333333e+07,-76.5743
8.586666667e+07,-70.834
8.624000000e+07,-72.6682
8.661333333e+07,-69.4638
8.698666667e+07,-56.7217
8.736000000e+07,-53.9118
8.773333333e+07,-66.4507
8.810666667e+07,-73.4275
8.848000000e+07,-72.6897
8.885333333e+07,-72.2145
8.922666667e+07,-75.9908
8.960000000e+07,-57.811
8.997333333e+07,-45.411
9.034666667e+07,-52.3586
9.072000000e+07,-70.2363
9.109333333e+07,-72.1695
9.146666667e+07,-69.8239
9.184000000e+07,-69.3399
9.221333333e+07,-72.9265
9.258666667e+07,-53.3725
9.296000000e+07,-55.1605
9.333333333e+07,-72.7599
9.370666667e+07,-71.2535
9.408000000e+07,-71.7759
9.445333333e+07,-70.8078
9.482666667e+07,-68.2536
9.520000000e+07,-52.5984
9.557333333e+07,-51.8447
9.594666667e+07,-48.3009
9.632000000e+07,-55.5153
9.669333333e+07,-75.3299
9.706666667e+07,-71.8654
9.744000000e+07,-65.0163
9.781333333e+07,-59.704
9.818666667e+07,-54.448
9.856000000e+07,-60.6646
9.893333333e+07,-66.1948
9.930666667e+07,-66.2213
9.968000000e+07,-72.9029
1.000533333e+08,-78.2642
1.004266667e+08,-64.3158
1.008000000e+08,-52.0898
1.011733333e+08,-54.1807
1.015466667e+08,-65.4443
1.019200000e+08,-54.1531
1.022933333e+08,-57.6241
1.026666667e+08,-65.547
1.030400000e+08,-67.5172
1.034133333e+08,-55.9087
1.037866667e+08,-56.3913
1.041600000e+08,-68.7755
1.045333333e+08,-69.195
1.049066667e+08,-64.0573
1.052800000e+08,-67.3831
1.056533333e+08,-66.495
1.060266667e+08,-54.2603
1.064000000e+08,-52.32
1.067733333e+08,-56.2756
1.071466667e+08,-67.3349
1.075200000e+08,-64.7772
1.078933333e+08,-46.686
1.082666667e+08,-48.5868
1.086400000e+08,-61.8956
1.090133333e+08,-54.23
1.093866667e+08,-54.9442
1.097600000e+08,-70.2703
1.101333333e+08,-72.1806
1.105066667e+08,-66.0443
1.108800000e+08,-75.7136
1.112533333e+08,-66.0815
1.116266667e+08,-53.2557
1.120000000e+08,-51.4963
1.123733333e+08,-64.9814
1.127466667e+08,-72.6405
1.131200000e+08,-73.9103
1.134933333e+08,-65.1268
1.138666667e+08,-58.9858
1.142400000e+08,-56.7735
1.146133333e+08,-53.3954
1.149866667e+08,-67.2171
1.153600000e+08,-71.4281
1.157333333e+08,-66.8642
1.161066667e+08,-69.1931
1.164800000e+08,-72.9884
1.168533333e+08,-62.5466
1.172266667e+08,-50.1928
1.176000000e+08,-54.659
1.179733333e+08,-77.0324
1.183466667e+08,-80.7703
1.187200000e+08,-83.1166
1.190933333e+08,-73.3683
1.194666667e+08,-61.6726
1.198400000e+08,-34.7347
1.202133333e+08,-35.542
1.205866667e+08,-67.5428
1.209600000e+08,-77.3956
1.213333333e+08,-79.3425
1.217066667e+08,-75.8881
1.220800000e+08,-72.2473
1.224533333e+08,-51.2419
1.228266667e+08,-49.1958
1.232000000e+08,-59.9651
1.235733333e+08,-68.7722
1.239466667e+08,-68.9597
1.243200000e+08,-76.0189
1.246933333e+08,-66.2757
1.250666667e+08,-56.9451
1.254400000e+08,-50.5046
1.258133333e+08,-54.0398
1.261866667e+08,-53.6517
1.265600000e+08,-66.9298
1.269333333e+08,-73.4389
1.273066667e+08,-68.8843
1.276800000e+08,-66.2112
1.280533333e+08,-49.3076
1.284266667e+08,-52.038
1.288000000e+08,-65.1311
1.291733333e+08,-68.1636
1.295466667e+08,-68.714
1.299200000e+08,-72.2652
1.302933333e+08,-66.3467
1.306666667e+08,-52.7375
1.310400000e+08,-53.2209
1.314133333e+08,-63.7895
1.317866667e+08,-60.2915
1.321600000e+08,-59.6786
1.325333333e+08,-69.058
1.329066667e+08,-63.2541
1.332800000e+08,-54.812
1.336533333e+08,-51.7994
1.340266667e+08,-54.4548
1.344000000e+08,-63.0735
1.347733333e+08,-66.4314
1.351466667e+08,-69.4127
1.355200000e+08,-67.4518
1.358933333e+08,-63.434
1.362666667e+08,-53.538
1.366400000e+08,-53.7746
1.370133333e+08,-68.4024
1.373866667e+08,-69.9157
1.377600000e+08,-63.9848
1.381333333e+08,-64.1003
1.385066667e+08,-65.8777
1.388800000e+08,-52.0105
1.392533333e+08,-49.8961
1.396266667e+08,-65.9666
1.400000000e+08,-68.4829
1.403733333e+08,-69.0059
1.407466667e+08,-69.0699
1.411200000e+08,-69.0039
1.414933333e+08,-57.0987
1.418666667e+08,-53.0228
1.422400000e+08,-63.164
1.426133333e+08,-71.2178
1.429866667e+08,-65.1652
1.433600000e+08,-68.0338
1.437333333e+08,-46.5896
1.441066667e+08,-44.0275
1.444800000e+08,-49.0126
1.448533333e+08,-51.039
1.452266667e+08,-70.3231
1.456000000e+08,-70.7565
1.459733333e+08,-74.5681
1.463466667e+08,-68.5944
1.467200000e+08,-75.1102
1.470933333e+08,-53.4752
1.474666667e+08,-52.5253
1.478400000e+08,-72.4001
1.482133333e+08,-72.7121
1.485866667e+08,-73.1112
1.489600000e+08,-70.1438
1.493333333e+08,-69.741
1.497066667e+08,-55.6249
1.500800000e+08,-51.1746
1.504533333e+08,-65.6152
1.508266667e+08,-68.8447
1.512000000e+08,-71.0763
1.515733333e+08,-71.3409
1.519466667e+08,-73.2504
1.523200000e+08,-59.0281
1.526933333e+08,-51.2238
1.530666667e+08,-57.9273
1.534400000e+08,-73.9022
1.538133333e+08,-77.0717
1.541866667e+08,-70.1166
1.545600000e+08,-72.9623
1.549333333e+08,-67.6971
1.553066667e+08,-47.9065
1.556800000e+08,-49.1356
1.560533333e+08,-43.9519
1.564266667e+08,-61.4901
1.568000000e+08,-69.2562
1.571733333e+08,-69.2348
1.575466667e+08,-68.8972
1.579200000e+08,-53.051
1.582933333e+08,-52.93
1.586666667e+08,-64.5964
1.590400000e+08,-65.826
1.594133333e+08,-63.3856
1.597866667e+08,-67.3193
1.601600000e+08,-66.0968
1.605333333e+08,-53.752
1.609066667e+08,-49.5751
1.612800000e+08,-54.1826
1.616533333e+08,-65.2491
1.620266667e+08,-64.3796
1.624000000e+08,-67.208
1.627733333e+08,-66.8894
1.631466667e+08,-61.9631
1.635200000e+08,-52.6876
1.638933333e+08,-54.6502
1.642666667e+08,-67.3856
1.646400000e+08,-63.2951
1.650133333e+08,-70.5785
1.653866667e+08,-68.5262
1.657600000e+08,-65.1822
1.661333333e+08,-50.3237
1.665066667e+08,-49.5512
1.668800000e+08,-61.1611
1.672533333e+08,-64.3284
1.676266667e+08,-52.9776
1.680000000e+08,-46.0179
1.683733333e+08,-54.864
1.687466667e+08,-56.3115
1.691200000e+08,-51.9886
1.694933333e+08,-56.3596
1.698666667e+08,-70.7528
1.702400000e+08,-72.7261
1.706133333e+08,-67.9685
1.709866667e+08,-64.9917
1.713600000e+08,-55.5417
1.717333333e+08,-48.0861
1.721066667e+08,-49.4098
1.724800000e+08,-64.9452
1.728533333e+08,-71.0367
1.732266667e+08,-72.2754
1.736000000e+08,-71.2906
1.739733333e+08,-63.6595
1.743466667e+08,-53.7361
1.747200000e+08,-52.409
1.750933333e+08,-70.3128
1.754666667e+08,-70.2148
1.758400000e+08,-68.9864
1.762133333e+08,-69.2502
1.765866667e+08,-68.003
1.769600000e+08,-52.5955
1.773333333e+08,-46.9579
1.777066667e+08,-59.036
1.780800000e+08,-70.8255
1.784533333e+08,-68.4814
1.788266667e+08,-67.0655
1.792000000e+08,-67.2695
1.795733333e+08,-57.3511
1.799466667e+08,-44.1018
1.803200000e+08,-49.1911
1.806933333e+08,-70.1347
1.810666667e+08,-69.8394
1.814400000e+08,-71.3229
1.818133333e+08,-73.1922
1.821866667e+08,-70.6579
1.825600000e+08,-47.2014
1.829333333e+08,-48.1551
1.833066667e+08,-69.22
1.836800000e+08,-64.0182
1.840533333e+08,-70.4708
1.844266667e+08,-74.2752
1.848000000e+08,-70.8807
1.851733333e+08,-53.9015
1.855466667e+08,-52.5871
1.859200000e+08,-63.6081
1.862933333e+08,-69.7401
1.866666667e+08,-75.4251
1.870400000e+08,-64.8095
1.874133333e+08,-71.9518
1.877866667e+08,-54.4295
1.881600000e+08,-48.2378
1.885333333e+08,-53.8151
1.889066667e+08,-62.5762
1.892800000e+08,-69.8502
1.896533333e+08,-68.9935
1.900266667e+08,-64.7419
1.904000000e+08,-67.8438
1.907733333e+08,-53.2128
1.911466667e+08,-55.2589
1.915200000e+08,-68.5037
1.918933333e+08,-53.5751
1.922666667e+08,-59.6555
1.926400000e+08,-68.3801
1.930133333e+08,-63.706
1.933866667e+08,-49.3375
1.937600000e+08,-49.4239
1.941333333e+08,-62.2585
1.945066667e+08,-65.1978
1.948800000e+08,-66.1298
1.952533333e+08,-65.5814
1.956266667e+08,-66.5462
1.960000000e+08,-56.4679
1.963733333e+08,-54.7106
1.967466667e+08,-58.8856
1.971200000e+08,-73.3892
1.974933333e+08,-74.0008
1.978666667e+08,-60.3929
1.982400000e+08,-64.0092
1.986133333e+08,-56.6007
1.989866667e+08,-48.1221
1.993600000e+08,-48.4193
1.997333333e+08,-63.4215
2.001066667e+08,-63.644
2.004800000e+08,-65.8419
2.008533333e+08,-70.1503
2.012266667e+08,-68.5441
2.016000000e+08,-54.3412
2.019733333e+08,-53.1642
2.023466667e+08,-65.4516
2.027200000e+08,-64.3191
2.030933333e+08,-70.7663
2.034666667e+08,-69.8031
2.038400000e+08,-42.4184
2.042133333e+08,-43.4652
2.045866667e+08,-47.0547
2.049600000e+08,-56.1411
2.053333333e+08,-68.4786
2.057066667e+08,-69.6382
2.060800000e+08,-68.78
2.064533333e+08,-65.4764
2.068266667e+08,-63.4272
2.072000000e+08,-51.6409
2.075733333e+08,-54.9449
2.079466667e+08,-69.9694
2.083200000e+08,-70.2933
2.086933333e+08,-69.4806
2.090666667e+08,-65.9341
2.094400000e+08,-67.7014
2.098133333e+08,-45.5141
2.101866667e+08,-45.4618
2.105600000e+08,-66.58
2.109333333e+08,-61.8383
2.113066667e+08,-61.9691
2.116800000e+08,-64.136
2.120533333e+08,-63.1872
2.124266667e+08,-53.6866
2.128000000e+08,-51.061
2.131733333e+08,-62.0277
2.135466667e+08,-60.3616
2.139200000e+08,-65.2018
2.142933333e+08,-62.7885
2.146666667e+08,-63.7898
2.150400000e+08,-55.2599
2.154133333e+08,-46.9992
2.157866667e+08,-50.3783
2.161600000e+08,-51.9176
2.165333333e+08,-64.699
2.169066667e+08,-62.7882
2.172800000e+08,-63.5328
2.176533333e+08,-65.8287
2.180266667e+08,-54.3767
2.184000000e+08,-55.3963
2.187733333e+08,-62.4527
2.191466667e+08,-69.8858
2.195200000e+08,-64.8897
2.198933333e+08,-65.4021
2.202666667e+08,-60.5447
2.206400000e+08,-48.1161
2.210133333e+08,-47.8812
2.213866667e+08,-57.1085
2.217600000e+08,-66.9247
2.221333333e+08,-67.7347
2.225066667e+08,-70.9127
2.228800000e+08,-67.5009
2.232533333e+08,-57.9594
2.236266667e+08,-54.9394
2.240000000e+08,-56.9512
2.243733333e+08,-69.3867
2.247466667e+08,-69.237
2.251200000e+08,-67.6326
2.254933333e+08,-64.6733
2.258666667e+08,-59.6822
2.262400000e+08,-47.8651
2.266133333e+08,-47.4954
2.269866667e+08,-61.95
2.273600000e+08,-64.7745
2.277333333e+08,-49.6237
2.281066667e+08,-46.8872
2.284800000e+08,-65.9655
2.288533333e+08,-55.2329
2.292266667e+08,-53.8476
2.296000000e+08,-66.4368
2.299733333e+08,-65.019
2.303466667e+08,-63.3976
2.307200000e+08,-63.9664
2.310933333e+08,-65.654
2.314666667e+08,-52.5035
2.318400000e+08,-46.8385
2.322133333e+08,-52.917
2.325866667e+08,-68.4284
2.329600000e+08,-70.6725
2.333333333e+08,-71.2794
2.337066667e+08,-70.5125
2.340800000e+08,-68.3319
2.344533333e+08,-52.7899
2.348266667e+08,-54.052
2.352000000e+08,-73.416
2.355733333e+08,-81.9315
2.359466667e+08,-71.6895
2.363200000e+08,-75.0327
2.366933333e+08,-71.4306
2.370666667e+08,-47.5961
2.374400000e+08,-46.4094
2.378133333e+08,-65.2446
2.381866667e+08,-71.1772
2.385600000e+08,-71.9664
2.389333333e+08,-79.6679
2.393066667e+08,-69.0952
2.396800000e+08,-66.5055
2.400533333e+08,-50.2116
2.404266667e+08,-51.5673
2.408000000e+08,-66.7671
2.411733333e+08,-66.6855
2.415466667e+08,-72.7546
2.419200000e+08,-70.6738
2.422933333e+08,-60.2691
2.426666667e+08,-47.0483
2.430400000e+08,-52.2959
2.434133333e+08,-75.4787
2.437866667e+08,-70.6815
2.441600000e+08,-72.1844
2.445333333e+08,-73.0781
2.449066667e+08,-72.7736
2.452800000e+08,-52.958
2.456533333e+08,-53.8875
2.460266667e+08,-64.9513
2.464000000e+08,-68.1931
2.467733333e+08,-71.3434
2.471466667e+08,-67.7498
2.475200000e+08,-66.2114
2.478933333e+08,-48.5203
2.482666667e+08,-47.5774
2.486400000e+08,-56.5958
2.490133333e+08,-65.6913
2.493866667e+08,-67.7635
2.497600000e+08,-75.891
2.501333333e+08,-69.252
2.505066667e+08,-59.6613
2.508800000e+08,-54.3215
2.512533333e+08,-58.3139
2.516266667e+08,-63.5115
2.520000000e+08,-59.0427
2.523733333e+08,-61.0581
2.527466667e+08,-64.8874
2.531200000e+08,-61.4399
2.534933333e+08,-49.1233
2.538666667e+08,-50.0956
2.542400000e+08,-63.325
2.546133333e+08,-68.336
2.549866667e+08,-68.0483
2.553600000e+08,-67.375
2.557333333e+08,-69.6844
2.561066667e+08,-55.3553
2.564800000e+08,-55.1534
2.568533333e+08,-65.1805
2.572266667e+08,-68.408
2.576000000e+08,-72.715
2.579733333e+08,-60.7813
2.583466667e+08,-63.3928
2.587200000e+08,-52.4093
2.590933333e+08,-48.3965
2.594666667e+08,-51.904
2.598400000e+08,-64.5565
2.602133333e+08,-64.959
2.605866667e+08,-71.2833
2.609600000e+08,-68.2301
2.613333333e+08,-65.7586
2.617066667e+08,-54.3762
2.620800000e+08,-54.4095
2.624533333e+08,-66.7664
2.628266667e+08,-68.8557
2.632000000e+08,-69.1764
2.635733333e+08,-58.5306
2.639466667e+08,-46.2988
2.643200000e+08,-48.8329
2.646933333e+08,-48.5691
2.650666667e+08,-67.8066
2.654400000e+08,-67.0439
2.658133333e+08,-68.8379
2.661866667e+08,-69.916
2.665600000e+08,-68.7225
2.669333333e+08,-59.6634
2.673066667e+08,-53.6905
2.676800000e+08,-62.613
2.680533333e+08,-68.5534
2.684266667e+08,-70.9723
2.688000000e+08,-70.0274
2.691733333e+08,-70.3125
2.695466667e+08,-66.3953
2.699200000e+08,-47.6145
2.702933333e+08,-50.7574
2.706666667e+08,-70.1116
2.710400000e+08,-71.5247
2.714133333e+08,-72.6159
2.717866667e+08,-67.9976
2.721600000e+08,-65.8473
2.725333333e+08,-53.9656
2.729066667e+08,-54.2756
2.732800000e+08,-72.6704
2.736533333e+08,-65.6896
2.740266667e+08,-66.1955
2.744000000e+08,-70.0064
2.747733333e+08,-66.5292
2.751466667e+08,-51.1461
2.755200000e+08,-48.7047
2.758933333e+08,-49.2927
2.762666667e+08,-51.5387
2.766400000e+08,-66.61
2.770133333e+08,-69.5922
2.773866667e+08,-72.7425
2.777600000e+08,-62.134
2.781333333e+08,-53.9983
2.785066667e+08,-58.9149
2.788800000e+08,-70.3974
2.792533333e+08,-67.5375
2.796266667e+08,-66.909
2.800000000e+08,-69.2982

